wavelength,counts
188.65,551.56
189.10,551.56
189.56,551.56
190.01,551.56
190.47,551.56
190.92,603.58
191.37,624.05
191.83,646.38
192.28,669.91
192.74,693.91
193.19,717.58
193.64,740.15
194.10,762.34
194.55,784.02
195.01,805.14
195.46,825.71
195.91,845.81
196.37,865.51
196.82,884.88
197.27,903.96
197.73,922.75
198.18,941.22
198.63,959.27
199.09,976.78
199.54,993.59
199.99,1009.50
200.45,1024.34
200.90,1037.95
201.35,1050.21
201.81,1061.04
202.26,1070.42
202.71,1078.38
203.17,1085.01
203.62,1090.43
204.07,1094.78
204.53,1098.24
204.98,1100.96
205.43,1103.09
205.89,1104.77
206.34,1106.09
206.79,1107.12
207.25,1107.89
207.70,1108.41
208.15,1108.66
208.60,1108.63
209.06,1108.30
209.51,1107.66
209.96,1106.73
210.41,1105.56
210.87,1104.22
211.32,1102.81
211.77,1101.44
212.23,1100.23
212.68,1099.29
213.13,1098.70
213.58,1098.50
214.04,1098.68
214.49,1099.19
214.94,1099.93
215.39,1100.76
215.84,1101.53
216.30,1102.09
216.75,1102.30
217.20,1102.08
217.65,1101.38
218.11,1100.23
218.56,1098.71
219.01,1096.96
219.46,1095.17
219.91,1093.51
220.37,1092.19
220.82,1091.36
221.27,1091.10
221.72,1091.46
222.17,1092.41
222.63,1093.83
223.08,1095.57
223.53,1097.45
223.98,1099.27
224.43,1100.84
224.88,1102.00
225.34,1102.65
225.79,1102.74
226.24,1102.26
226.69,1101.28
227.14,1099.89
227.59,1098.22
228.04,1096.40
228.50,1094.57
228.95,1092.82
229.40,1091.26
229.85,1089.94
230.30,1088.87
230.75,1088.06
231.20,1087.49
231.66,1087.12
232.11,1086.93
232.56,1086.89
233.01,1087.00
233.46,1087.27
233.91,1087.71
234.36,1088.33
234.81,1089.14
235.26,1090.13
235.71,1091.26
236.17,1092.44
236.62,1093.60
237.07,1094.61
237.52,1095.35
237.97,1095.72
238.42,1095.65
238.87,1095.09
239.32,1094.06
239.77,1092.62
240.22,1090.87
240.67,1088.97
241.12,1087.06
241.57,1085.32
242.02,1083.89
242.47,1082.88
242.92,1082.39
243.37,1082.45
243.82,1083.04
244.27,1084.12
244.72,1085.60
245.18,1087.37
245.63,1089.34
246.08,1091.38
246.53,1093.40
246.98,1095.34
247.43,1097.15
247.88,1098.81
248.33,1100.32
248.78,1101.71
249.23,1102.99
249.68,1104.20
250.12,1105.36
250.57,1106.49
251.02,1107.60
251.47,1108.68
251.92,1109.70
252.37,1110.66
252.82,1111.52
253.27,1112.26
253.72,1112.87
254.17,1113.33
254.62,1113.64
255.07,1113.80
255.52,1113.81
255.97,1113.70
256.42,1113.47
256.87,1113.14
257.32,1112.73
257.77,1112.26
258.22,1111.75
258.66,1111.21
259.11,1110.65
259.56,1110.11
260.01,1109.58
260.46,1109.09
260.91,1108.64
261.36,1108.26
261.81,1107.96
262.26,1107.77
262.71,1107.68
263.15,1107.71
263.60,1107.85
264.05,1108.08
264.50,1108.35
264.95,1108.61
265.40,1108.78
265.85,1108.81
266.30,1108.60
266.74,1108.12
267.19,1107.32
267.64,1106.21
268.09,1104.81
268.54,1103.18
268.99,1101.39
269.43,1099.54
269.88,1097.73
270.33,1096.04
270.78,1094.53
271.23,1093.26
271.68,1092.24
272.12,1091.45
272.57,1090.84
273.02,1090.36
273.47,1089.94
273.92,1089.51
274.36,1089.02
274.81,1088.43
275.26,1087.73
275.71,1086.92
276.16,1086.06
276.60,1085.17
277.05,1084.31
277.50,1083.54
277.95,1082.92
278.39,1082.49
278.84,1082.28
279.29,1082.31
279.74,1082.60
280.19,1083.17
280.63,1084.01
281.08,1085.12
281.53,1086.51
281.98,1088.14
282.42,1089.99
282.87,1092.03
283.32,1094.21
283.76,1096.45
284.21,1098.68
284.66,1100.81
285.11,1102.76
285.55,1104.44
286.00,1105.77
286.45,1106.72
286.89,1107.26
287.34,1107.42
287.79,1107.27
288.23,1106.92
288.68,1106.50
289.13,1106.16
289.58,1106.03
290.02,1106.21
290.47,1106.76
290.92,1107.66
291.36,1108.85
291.81,1110.22
292.26,1111.64
292.70,1112.98
293.15,1114.13
293.60,1115.02
294.04,1115.66
294.49,1116.07
294.93,1116.35
295.38,1116.59
295.83,1116.89
296.27,1117.32
296.72,1117.90
297.17,1118.61
297.61,1119.38
298.06,1120.11
298.50,1120.67
298.95,1120.93
299.40,1120.78
299.84,1120.15
300.29,1119.00
300.73,1117.34
301.18,1115.22
301.63,1112.73
302.07,1110.00
302.52,1107.15
302.96,1104.34
303.41,1101.71
303.85,1099.38
304.30,1097.48
304.75,1096.08
305.19,1095.24
305.64,1094.95
306.08,1095.19
306.53,1095.89
306.97,1096.94
307.42,1098.22
307.86,1099.58
308.31,1100.90
308.75,1102.08
309.20,1103.05
309.65,1103.76
310.09,1104.26
310.54,1104.59
310.98,1104.84
311.43,1105.14
311.87,1105.58
312.32,1106.24
312.76,1107.15
313.21,1108.28
313.65,1109.57
314.10,1110.86
314.54,1112.01
314.99,1112.83
315.43,1113.19
315.87,1112.96
316.32,1112.10
316.76,1110.65
317.21,1108.72
317.65,1106.47
318.10,1104.12
318.54,1101.92
318.99,1100.06
319.43,1098.75
319.88,1098.10
320.32,1098.14
320.76,1098.85
321.21,1100.11
321.65,1101.78
322.10,1103.66
322.54,1105.56
322.99,1107.31
323.43,1108.76
323.87,1109.83
324.32,1110.49
324.76,1110.76
325.21,1110.69
325.65,1110.39
326.09,1109.93
326.54,1109.44
326.98,1108.99
327.42,1108.67
327.87,1108.53
328.31,1108.62
328.76,1108.96
329.20,1109.56
329.64,1110.42
330.09,1111.52
330.53,1112.83
330.97,1114.31
331.42,1115.90
331.86,1117.52
332.30,1119.10
332.75,1120.55
333.19,1121.79
333.63,1122.73
334.08,1123.31
334.52,1123.51
334.96,1123.29
335.41,1122.67
335.85,1121.70
336.29,1120.43
336.74,1118.96
337.18,1117.41
337.62,1115.90
338.06,1114.57
338.51,1113.54
338.95,1112.93
339.39,1112.83
339.84,1113.29
340.28,1114.31
340.72,1115.85
341.16,1117.81
341.61,1120.08
342.05,1122.47
342.49,1124.80
342.93,1126.91
343.38,1128.61
343.82,1129.80
344.26,1130.39
344.70,1130.37
345.15,1129.77
345.59,1128.69
346.03,1127.25
346.47,1125.58
346.92,1123.85
347.36,1122.18
347.80,1120.68
348.24,1119.43
348.68,1118.46
349.13,1117.76
349.57,1117.31
350.01,1117.04
350.45,1116.92
350.89,1116.88
351.34,1116.90
351.78,1116.99
352.22,1117.14
352.66,1117.40
353.10,1117.80
353.54,1118.40
353.99,1119.21
354.43,1120.25
354.87,1121.51
355.31,1122.94
355.75,1124.49
356.19,1126.09
356.63,1127.67
357.08,1129.14
357.52,1130.44
357.96,1131.50
358.40,1132.28
358.84,1132.74
359.28,1132.89
359.72,1132.73
360.16,1132.30
360.60,1131.64
361.05,1130.82
361.49,1129.88
361.93,1128.88
362.37,1127.86
362.81,1126.85
363.25,1125.84
363.69,1124.84
364.13,1123.81
364.57,1122.75
365.01,1121.64
365.45,1120.50
365.89,1119.35
366.33,1118.25
366.78,1117.26
367.22,1116.47
367.66,1115.96
368.10,1115.80
368.54,1116.02
368.98,1116.65
369.42,1117.67
369.86,1119.04
370.30,1120.69
370.74,1122.55
371.18,1124.51
371.62,1126.51
372.06,1128.47
372.50,1130.34
372.94,1132.10
373.38,1133.74
373.82,1135.28
374.26,1136.75
374.70,1138.19
375.14,1139.66
375.58,1141.20
376.02,1142.85
376.46,1144.64
376.90,1146.58
377.34,1148.65
377.78,1150.84
378.21,1153.08
378.65,1155.32
379.09,1157.49
379.53,1159.53
379.97,1161.39
380.41,1163.02
380.85,1164.39
381.29,1165.50
381.73,1166.36
382.17,1166.98
382.61,1167.36
383.05,1167.55
383.49,1167.54
383.93,1167.37
384.36,1167.05
384.80,1166.60
385.24,1166.06
385.68,1165.48
386.12,1164.91
386.56,1164.45
387.00,1164.20
387.44,1164.25
387.87,1164.73
388.31,1165.73
388.75,1167.33
389.19,1169.56
389.63,1172.43
390.07,1175.87
390.51,1179.76
390.94,1183.95
391.38,1188.22
391.82,1192.37
392.26,1196.18
392.70,1199.46
393.14,1202.09
393.57,1203.99
394.01,1205.16
394.45,1205.68
394.89,1205.68
395.33,1205.32
395.76,1204.80
396.20,1204.30
396.64,1204.00
397.08,1204.02
397.52,1204.44
397.95,1205.30
398.39,1206.60
398.83,1208.32
399.27,1210.38
399.70,1212.74
400.14,1215.31
400.58,1218.00
401.02,1220.75
401.45,1223.46
401.89,1226.07
402.33,1228.54
402.77,1230.81
403.20,1232.88
403.64,1234.75
404.08,1236.47
404.52,1238.07
404.95,1239.63
405.39,1241.19
405.83,1242.82
406.26,1244.57
406.70,1246.52
407.14,1248.70
407.58,1251.20
408.01,1254.05
408.45,1257.33
408.89,1261.08
409.32,1265.31
409.76,1270.03
410.20,1275.20
410.63,1280.78
411.07,1286.69
411.51,1292.85
411.94,1299.21
412.38,1305.71
412.82,1312.32
413.25,1319.03
413.69,1325.81
414.12,1332.66
414.56,1339.53
415.00,1346.36
415.43,1353.10
415.87,1359.66
416.31,1366.00
416.74,1372.11
417.18,1378.02
417.61,1383.80
418.05,1389.58
418.49,1395.48
418.92,1401.63
419.36,1408.14
419.79,1415.07
420.23,1422.41
420.67,1430.11
421.10,1438.09
421.54,1446.21
421.97,1454.36
422.41,1462.45
422.84,1470.41
423.28,1478.21
423.71,1485.86
424.15,1493.41
424.59,1500.90
425.02,1508.41
425.46,1516.00
425.89,1523.71
426.33,1531.58
426.76,1539.64
427.20,1547.90
427.63,1556.38
428.07,1565.08
428.50,1573.98
428.94,1583.07
429.37,1592.32
429.81,1601.67
430.24,1611.06
430.68,1620.45
431.11,1629.77
431.55,1638.98
431.98,1648.06
432.42,1656.99
432.85,1665.79
433.28,1674.45
433.72,1682.99
434.15,1691.42
434.59,1699.69
435.02,1707.79
435.46,1715.66
435.89,1723.27
436.33,1730.56
436.76,1737.54
437.19,1744.23
437.63,1750.66
438.06,1756.92
438.50,1763.08
438.93,1769.22
439.37,1775.39
439.80,1781.65
440.23,1787.98
440.67,1794.36
441.10,1800.79
441.53,1807.21
441.97,1813.64
442.40,1820.09
442.84,1826.64
443.27,1833.37
443.70,1840.40
444.14,1847.86
444.57,1855.82
445.00,1864.34
445.44,1873.40
445.87,1882.94
446.30,1892.81
446.74,1902.84
447.17,1912.86
447.60,1922.67
448.04,1932.14
448.47,1941.19
448.90,1949.80
449.34,1958.01
449.77,1965.92
450.20,1973.64
450.64,1981.30
451.07,1989.02
451.50,1996.87
451.93,2004.92
452.37,2013.20
452.80,2021.74
453.23,2030.53
453.67,2039.60
454.10,2048.98
454.53,2058.73
454.96,2068.91
455.40,2079.57
455.83,2090.74
456.26,2102.43
456.69,2114.55
457.13,2127.00
457.56,2139.60
457.99,2152.12
458.42,2164.34
458.86,2176.04
459.29,2187.09
459.72,2197.42
460.15,2207.08
460.58,2216.24
461.02,2225.15
461.45,2234.12
461.88,2243.50
462.31,2253.58
462.74,2264.56
463.18,2276.54
463.61,2289.46
464.04,2303.15
464.47,2317.34
464.90,2331.71
465.33,2345.95
465.77,2359.83
466.20,2373.23
466.63,2386.17
467.06,2398.84
467.49,2411.53
467.92,2424.64
468.35,2438.58
468.78,2453.69
469.22,2470.24
469.65,2488.33
470.08,2507.87
470.51,2528.65
470.94,2550.31
471.37,2572.45
471.80,2594.69
472.23,2616.73
472.66,2638.45
473.10,2659.89
473.53,2681.26
473.96,2702.96
474.39,2725.43
474.82,2749.15
475.25,2774.49
475.68,2801.65
476.11,2830.66
476.54,2861.26
476.97,2893.03
477.40,2925.35
477.83,2957.54
478.26,2988.98
478.69,3019.14
479.12,3047.74
479.55,3074.78
479.98,3100.54
480.41,3125.57
480.84,3150.61
481.27,3176.48
481.70,3203.92
482.13,3233.52
482.56,3265.56
482.99,3299.99
483.42,3336.35
483.85,3373.90
484.28,3411.62
484.71,3448.40
485.14,3483.20
485.57,3515.16
486.00,3543.77
486.43,3568.92
486.86,3590.94
487.29,3610.54
487.72,3628.77
488.15,3646.77
488.58,3665.72
489.01,3686.58
489.44,3710.01
489.87,3736.25
490.30,3765.08
490.72,3795.88
491.15,3827.68
491.58,3859.34
492.01,3889.71
492.44,3917.78
492.87,3942.86
493.30,3964.65
493.73,3983.37
494.16,3999.63
494.59,4014.45
495.01,4029.07
495.44,4044.80
495.87,4062.83
496.30,4084.05
496.73,4108.92
497.16,4137.40
497.59,4168.92
498.01,4202.44
498.44,4236.60
498.87,4269.87
499.30,4300.73
499.73,4327.91
500.16,4350.52
500.58,4368.22
501.01,4381.21
501.44,4390.28
501.87,4396.70
502.30,4402.07
502.72,4408.14
503.15,4416.57
503.58,4428.80
504.01,4445.80
504.44,4468.00
504.86,4495.21
505.29,4526.65
505.72,4561.02
506.15,4596.66
506.57,4631.76
507.00,4664.53
507.43,4693.44
507.86,4717.40
508.28,4735.86
508.71,4748.89
509.14,4757.18
509.57,4761.90
509.99,4764.65
510.42,4767.17
510.85,4771.22
511.27,4778.35
511.70,4789.69
512.13,4805.89
512.56,4827.00
512.98,4852.49
513.41,4881.31
513.84,4912.00
514.26,4942.85
514.69,4972.11
515.12,4998.19
515.54,5019.79
515.97,5036.12
516.40,5046.93
516.82,5052.60
517.25,5054.05
517.68,5052.72
518.10,5050.32
518.53,5048.73
518.95,5049.75
519.38,5054.89
519.81,5065.19
520.23,5081.15
520.66,5102.59
521.09,5128.73
521.51,5158.27
521.94,5189.51
522.36,5220.55
522.79,5249.53
523.22,5274.81
523.64,5295.14
524.07,5309.84
524.49,5318.80
524.92,5322.53
525.34,5322.05
525.77,5318.81
526.20,5314.50
526.62,5310.85
527.05,5309.47
527.47,5311.66
527.90,5318.30
528.32,5329.73
528.75,5345.75
529.17,5365.65
529.60,5388.27
530.02,5412.14
530.45,5435.62
530.87,5457.05
531.30,5474.94
531.72,5488.07
532.15,5495.64
532.57,5497.32
533.00,5493.31
533.42,5484.28
533.85,5471.36
534.27,5456.03
534.70,5439.95
535.12,5424.88
535.55,5412.49
535.97,5404.19
536.40,5401.07
536.82,5403.74
537.25,5412.31
537.67,5426.37
538.09,5445.02
538.52,5466.90
538.94,5490.36
539.37,5513.57
539.79,5534.65
540.22,5551.88
540.64,5563.83
541.06,5569.51
541.49,5568.50
541.91,5560.97
542.34,5547.72
542.76,5530.10
543.18,5509.91
543.61,5489.20
544.03,5470.12
544.46,5454.65
544.88,5444.46
545.30,5440.69
545.73,5443.91
546.15,5454.01
546.57,5470.27
547.00,5491.44
547.42,5515.84
547.84,5541.55
548.27,5566.58
548.69,5588.99
549.11,5607.10
549.54,5619.56
549.96,5625.48
550.38,5624.47
550.81,5616.68
551.23,5602.79
551.65,5583.99
552.07,5561.86
552.50,5538.27
552.92,5515.22
553.34,5494.69
553.77,5478.46
554.19,5467.93
554.61,5464.02
555.03,5467.07
555.46,5476.83
555.88,5492.48
556.30,5512.71
556.72,5535.85
557.15,5560.01
557.57,5583.21
557.99,5603.53
558.41,5619.29
558.84,5629.09
559.26,5631.96
559.68,5627.42
560.10,5615.51
560.52,5596.83
560.95,5572.50
561.37,5544.12
561.79,5513.65
562.21,5483.34
562.63,5455.46
563.06,5432.22
563.48,5415.53
563.90,5406.86
564.32,5407.11
564.74,5416.54
565.16,5434.75
565.58,5460.72
566.01,5492.91
566.43,5529.39
566.85,5567.96
567.27,5606.36
567.69,5642.37
568.11,5673.96
568.53,5699.45
568.96,5717.56
569.38,5727.51
569.80,5729.06
570.22,5722.53
570.64,5708.80
571.06,5689.21
571.48,5665.53
571.90,5639.75
572.32,5613.99
572.74,5590.32
573.16,5570.53
573.58,5556.06
574.01,5547.85
574.43,5546.26
574.85,5551.12
575.27,5561.72
575.69,5576.94
576.11,5595.33
576.53,5615.28
576.95,5635.11
577.37,5653.21
577.79,5668.12
578.21,5678.60
578.63,5683.68
579.05,5682.74
579.47,5675.46
579.89,5661.92
580.31,5642.59
580.73,5618.31
581.15,5590.28
581.57,5560.05
581.99,5529.38
582.41,5500.20
582.83,5474.43
583.25,5453.88
583.67,5440.07
584.09,5434.14
584.51,5436.72
584.93,5447.91
585.34,5467.24
585.76,5493.70
586.18,5525.87
586.60,5561.98
587.02,5600.05
587.44,5638.09
587.86,5674.14
588.28,5706.50
588.70,5733.76
589.12,5754.92
589.54,5769.46
589.95,5777.32
590.37,5778.93
590.79,5775.21
591.21,5767.47
591.63,5757.38
592.05,5746.84
592.47,5737.88
592.89,5732.55
593.30,5732.76
593.72,5740.15
594.14,5755.99
594.56,5781.10
594.98,5815.78
595.40,5859.79
595.81,5912.40
596.23,5972.41
596.65,6038.26
597.07,6108.09
597.49,6179.90
597.90,6251.59
598.32,6321.10
598.74,6386.49
599.16,6446.03
599.58,6498.27
599.99,6542.12
600.41,6576.85
600.83,6602.18
601.25,6618.26
601.66,6625.69
602.08,6625.45
602.50,6618.89
602.92,6607.61
603.33,6593.39
603.75,6578.09
604.17,6563.51
604.59,6551.34
605.00,6543.03
605.42,6539.73
605.84,6542.24
606.25,6550.95
606.67,6565.86
607.09,6586.60
607.51,6612.41
607.92,6642.23
608.34,6674.76
608.76,6708.55
609.17,6742.06
609.59,6773.77
610.01,6802.29
610.42,6826.40
610.84,6845.19
611.26,6858.06
611.67,6864.77
612.09,6865.44
612.51,6860.57
612.92,6850.95
613.34,6837.67
613.75,6821.96
614.17,6805.19
614.59,6788.76
615.00,6774.02
615.42,6762.21
615.83,6754.38
616.25,6751.38
616.67,6753.80
617.08,6761.98
617.50,6775.98
617.91,6795.62
618.33,6820.48
618.75,6849.96
619.16,6883.33
619.58,6919.71
619.99,6958.21
620.41,6997.89
620.82,7037.83
621.24,7077.14
621.65,7114.98
622.07,7150.57
622.48,7183.20
622.90,7212.22
623.31,7237.11
623.73,7257.44
624.14,7272.96
624.56,7283.64
624.97,7289.65
625.39,7291.47
625.80,7289.82
626.22,7285.69
626.63,7280.28
627.05,7274.91
627.46,7270.96
627.88,7269.74
628.29,7272.41
628.71,7279.86
629.12,7292.69
629.54,7311.11
629.95,7335.03
630.37,7364.00
630.78,7397.36
631.19,7434.21
631.61,7473.58
632.02,7514.43
632.44,7555.77
632.85,7596.65
633.26,7636.21
633.68,7673.75
634.09,7708.63
634.51,7740.38
634.92,7768.62
635.33,7793.13
635.75,7813.80
636.16,7830.65
636.57,7843.86
636.99,7853.76
637.40,7860.83
637.82,7865.66
638.23,7869.00
638.64,7871.67
639.06,7874.53
639.47,7878.47
639.88,7884.37
640.30,7893.02
640.71,7905.11
641.12,7921.19
641.53,7941.63
641.95,7966.60
642.36,7996.06
642.77,8029.77
643.19,8067.26
643.60,8107.92
644.01,8150.99
644.42,8195.62
644.84,8240.97
645.25,8286.22
645.66,8330.63
646.08,8373.59
646.49,8414.62
646.90,8453.36
647.31,8489.54
647.73,8522.97
648.14,8553.53
648.55,8581.10
648.96,8605.62
649.37,8627.02
649.79,8645.35
650.20,8660.70
650.61,8673.30
651.02,8683.54
651.43,8691.90
651.85,8699.04
652.26,8705.70
652.67,8712.67
653.08,8720.76
653.49,8730.74
653.90,8743.30
654.32,8759.00
654.73,8778.26
655.14,8801.31
655.55,8828.22
655.96,8858.89
656.37,8893.03
656.78,8930.19
657.20,8969.77
657.61,9011.06
658.02,9053.25
658.43,9095.49
658.84,9136.90
659.25,9176.67
659.66,9214.05
660.07,9248.41
660.48,9279.28
660.90,9306.38
661.31,9329.59
661.72,9348.99
662.13,9364.80
662.54,9377.40
662.95,9387.23
663.36,9394.78
663.77,9400.57
664.18,9405.09
664.59,9408.85
665.00,9412.29
665.41,9415.88
665.82,9420.09
666.23,9425.41
666.64,9432.37
667.05,9441.52
667.46,9453.40
667.87,9468.50
668.28,9487.22
668.69,9509.77
669.10,9536.17
669.51,9566.17
669.92,9599.31
670.33,9634.85
670.74,9671.91
671.15,9709.48
671.56,9746.52
671.97,9782.09
672.38,9815.33
672.79,9845.65
673.20,9872.64
673.61,9896.16
674.02,9916.28
674.42,9933.25
674.83,9947.43
675.24,9959.24
675.65,9969.12
676.06,9977.44
676.47,9984.53
676.88,9990.67
677.29,9996.10
677.70,10001.01
678.11,10005.63
678.51,10010.20
678.92,10014.98
679.33,10020.24
679.74,10026.27
680.15,10033.29
680.56,10041.47
680.97,10050.91
681.37,10061.61
681.78,10073.50
682.19,10086.46
682.60,10100.36
683.01,10115.08
683.42,10130.54
683.82,10146.73
684.23,10163.70
684.64,10181.55
685.05,10200.39
685.45,10220.29
685.86,10241.26
686.27,10263.17
686.68,10285.76
687.09,10308.62
687.49,10331.17
687.90,10352.78
688.31,10372.75
688.72,10390.39
689.12,10405.12
689.53,10416.49
689.94,10424.25
690.35,10428.35
690.75,10428.94
691.16,10426.33
691.57,10421.01
691.97,10413.52
692.38,10404.48
692.79,10394.52
693.20,10384.24
693.60,10374.21
694.01,10364.98
694.42,10357.03
694.82,10350.83
695.23,10346.79
695.64,10345.28
696.04,10346.63
696.45,10351.11
696.86,10358.88
697.26,10370.03
697.67,10384.52
698.07,10402.20
698.48,10422.78
698.89,10445.86
699.29,10470.94
699.70,10497.41
700.11,10524.61
700.51,10551.87
700.92,10578.48
701.32,10603.78
701.73,10627.17
702.14,10648.13
702.54,10666.27
702.95,10681.33
703.35,10693.18
703.76,10701.84
704.16,10707.48
704.57,10710.37
704.97,10710.89
705.38,10709.47
705.79,10706.56
706.19,10702.59
706.60,10697.94
707.00,10692.94
707.41,10687.82
707.81,10682.75
708.22,10677.84
708.62,10673.16
709.03,10668.79
709.43,10664.82
709.84,10661.44
710.24,10658.89
710.65,10657.48
711.05,10657.60
711.46,10659.65
711.86,10664.02
712.27,10671.03
712.67,10680.92
713.07,10693.76
713.48,10709.49
713.88,10727.88
714.29,10748.58
714.69,10771.08
715.10,10794.83
715.50,10819.19
715.90,10843.52
716.31,10867.20
716.71,10889.64
717.12,10910.32
717.52,10928.78
717.92,10944.70
718.33,10957.82
718.73,10968.02
719.14,10975.25
719.54,10979.58
719.94,10981.12
720.35,10980.04
720.75,10976.54
721.15,10970.82
721.56,10963.06
721.96,10953.45
722.36,10942.13
722.77,10929.25
723.17,10914.94
723.57,10899.37
723.98,10882.72
724.38,10865.23
724.78,10847.21
725.19,10829.02
725.59,10811.09
725.99,10793.92
726.39,10778.02
726.80,10763.91
727.20,10752.09
727.60,10742.96
728.00,10736.84
728.41,10733.92
728.81,10734.20
729.21,10737.58
729.61,10743.78
730.02,10752.41
730.42,10763.01
730.82,10775.06
731.22,10788.02
731.63,10801.37
732.03,10814.62
732.43,10827.29
732.83,10838.91
733.23,10849.06
733.64,10857.26
734.04,10863.09
734.44,10866.12
734.84,10865.98
735.24,10862.39
735.64,10855.19
736.05,10844.39
736.45,10830.16
736.85,10812.84
737.25,10792.88
737.65,10770.83
738.05,10747.23
738.45,10722.59
738.86,10697.29
739.26,10671.58
739.66,10645.56
740.06,10619.21
740.46,10592.42
740.86,10565.07
741.26,10537.05
741.66,10508.39
742.06,10479.21
742.46,10449.80
742.87,10420.54
743.27,10391.96
743.67,10364.59
744.07,10339.00
744.47,10315.70
744.87,10295.13
745.27,10277.63
745.67,10263.43
746.07,10252.68
746.47,10245.44
746.87,10241.71
747.27,10241.45
747.67,10244.56
748.07,10250.93
748.47,10260.39
748.87,10272.73
749.27,10287.65
749.67,10304.79
750.07,10323.73
750.47,10343.95
750.87,10364.89
751.27,10385.94
751.67,10406.51
752.07,10426.03
752.47,10443.99
752.87,10459.95
753.27,10473.55
753.66,10484.52
754.06,10492.65
754.46,10497.76
754.86,10499.68
755.26,10498.23
755.66,10493.19
756.06,10484.31
756.46,10471.36
756.86,10454.08
757.26,10432.30
757.65,10405.95
758.05,10375.10
758.45,10340.01
758.85,10301.10
759.25,10258.99
759.65,10214.39
760.05,10168.12
760.44,10121.00
760.84,10073.79
761.24,10027.16
761.64,9981.62
762.04,9937.54
762.44,9895.12
762.83,9854.45
763.23,9815.48
763.63,9778.14
764.03,9742.28
764.43,9707.74
764.82,9674.35
765.22,9641.97
765.62,9610.40
766.02,9579.51
766.41,9549.11
766.81,9519.05
767.21,9489.20
767.61,9459.45
768.00,9429.72
768.40,9399.99
768.80,9370.25
769.20,9340.51
769.59,9310.77
769.99,9280.98
770.39,9251.02
770.79,9220.67
771.18,9189.61
771.58,9157.44
771.98,9123.71
772.37,9087.93
772.77,9049.68
773.17,9008.64
773.56,8964.60
773.96,8917.56
774.36,8867.69
774.75,8815.32
775.15,8760.98
775.55,8705.27
775.94,8648.93
776.34,8592.69
776.73,8537.34
777.13,8483.64
777.53,8432.29
777.92,8383.95
778.32,8339.18
778.72,8298.42
779.11,8261.99
779.51,8230.02
779.90,8202.47
780.30,8179.11
780.69,8159.56
781.09,8143.26
781.49,8129.59
781.88,8117.89
782.28,8107.51
782.67,8097.92
783.07,8088.70
783.46,8079.58
783.86,8070.46
784.25,8061.37
784.65,8052.42
785.04,8043.79
785.44,8035.60
785.83,8027.94
786.23,8020.77
786.62,8013.89
787.02,8007.00
787.41,7999.62
787.81,7991.19
788.20,7981.07
788.60,7968.64
788.99,7953.30
789.39,7934.55
789.78,7912.04
790.18,7885.61
790.57,7855.27
790.97,7821.27
791.36,7784.01
791.75,7744.06
792.15,7702.13
792.54,7658.97
792.94,7615.37
793.33,7572.07
793.72,7529.75
794.12,7488.95
794.51,7450.05
794.91,7413.29
795.30,7378.72
795.69,7346.24
796.09,7315.64
796.48,7286.60
796.87,7258.80
797.27,7231.93
797.66,7205.75
798.05,7180.10
798.45,7154.99
798.84,7130.53
799.23,7106.98
799.63,7084.68
800.02,7064.05
800.41,7045.51
800.81,7029.45
801.20,7016.16
801.59,7005.83
801.99,6998.48
802.38,6993.98
802.77,6992.04
803.16,6992.23
803.56,6994.03
803.95,6996.82
804.34,6999.98
804.73,7002.89
805.13,7004.99
805.52,7005.75
805.91,7004.79
806.30,7001.77
806.69,6996.48
807.09,6988.80
807.48,6978.69
807.87,6966.17
808.26,6951.32
808.66,6934.25
809.05,6915.08
809.44,6893.96
809.83,6871.03
810.22,6846.42
810.61,6820.29
811.01,6792.78
811.40,6764.01
811.79,6734.11
812.18,6703.21
812.57,6671.41
812.96,6638.79
813.35,6605.43
813.75,6571.41
814.14,6536.83
814.53,6501.78
814.92,6466.43
815.31,6431.00
815.70,6395.78
816.09,6361.12
816.48,6327.45
816.87,6295.21
817.26,6264.86
817.65,6236.81
818.04,6211.42
818.44,6188.93
818.83,6169.48
819.22,6153.06
819.61,6139.54
820.00,6128.70
820.39,6120.25
820.78,6113.88
821.17,6109.29
821.56,6106.20
821.95,6104.39
822.34,6103.72
822.73,6104.03
823.12,6105.24
823.51,6107.21
823.90,6109.80
824.29,6112.83
824.68,6116.08
825.07,6119.30
825.46,6122.25
825.85,6124.70
826.24,6126.46
826.62,6127.41
827.01,6127.44
827.40,6126.50
827.79,6124.56
828.18,6121.57
828.57,6117.49
828.96,6112.21
829.35,6105.62
829.74,6097.56
830.13,6087.85
830.52,6076.30
830.90,6062.73
831.29,6046.97
831.68,6028.90
832.07,6008.45
832.46,5985.60
832.85,5960.41
833.24,5933.02
833.62,5903.66
834.01,5872.65
834.40,5840.38
834.79,5807.31
835.18,5773.99
835.57,5740.94
835.95,5708.74
836.34,5677.91
836.73,5648.93
837.12,5622.18
837.51,5597.97
837.89,5576.48
838.28,5557.79
838.67,5541.89
839.06,5528.67
839.44,5517.98
839.83,5509.62
840.22,5503.38
840.61,5499.06
840.99,5496.47
841.38,5495.43
841.77,5495.79
842.16,5497.42
842.54,5500.21
842.93,5504.02
843.32,5508.76
843.70,5514.33
844.09,5520.63
844.48,5527.59
844.86,5535.13
845.25,5543.18
845.64,5551.70
846.02,5560.61
846.41,5569.83
846.80,5579.27
847.18,5588.81
847.57,5598.30
847.96,5607.55
848.34,5616.38
848.73,5624.55
849.12,5631.83
849.50,5637.96
849.89,5642.69
850.27,5645.76
850.66,5646.91
851.05,5645.90
851.43,5642.51
851.82,5636.57
852.20,5627.99
852.59,5616.73
852.97,5602.91
853.36,5586.74
853.75,5568.56
854.13,5548.81
854.52,5528.04
854.90,5506.85
855.29,5485.81
855.67,5465.49
856.06,5446.34
856.44,5428.69
856.83,5412.73
857.21,5398.49
857.60,5385.90
857.98,5374.77
858.37,5364.90
858.75,5356.07
859.14,5348.11
859.52,5340.92
859.91,5334.50
860.29,5328.91
860.68,5324.28
861.06,5320.77
861.44,5318.54
861.83,5317.70
862.21,5318.32
862.60,5320.41
862.98,5323.89
863.37,5328.62
863.75,5334.42
864.13,5341.05
864.52,5348.27
864.90,5355.79
865.29,5363.36
865.67,5370.72
866.05,5377.64
866.44,5383.95
866.82,5389.53
867.20,5394.32
867.59,5398.33
867.97,5401.65
868.35,5404.42
868.74,5406.80
869.12,5408.99
869.50,5411.13
869.89,5413.37
870.27,5415.75
870.65,5418.26
871.04,5420.80
871.42,5423.22
871.80,5425.28
872.19,5426.73
872.57,5427.29
872.95,5426.71
873.33,5424.78
873.72,5421.34
874.10,5416.34
874.48,5409.84
874.86,5402.00
875.25,5393.11
875.63,5383.55
876.01,5373.83
876.39,5364.47
876.77,5356.05
877.16,5349.12
877.54,5344.21
877.92,5341.73
878.30,5342.01
878.68,5345.26
879.07,5351.53
879.45,5360.77
879.83,5372.81
880.21,5387.39
880.59,5404.20
880.97,5422.88
881.36,5443.09
881.74,5464.50
882.12,5486.86
882.50,5509.98
882.88,5533.76
883.26,5558.19
883.64,5583.35
884.02,5609.39
884.41,5636.50
884.79,5664.92
885.17,5694.85
885.55,5726.49
885.93,5759.95
886.31,5795.25
886.69,5832.33
887.07,5870.99
887.45,5910.95
887.83,5951.84
888.21,5993.19
888.59,6034.54
888.97,6075.37
889.35,6115.17
889.73,6153.45
890.11,6189.74
890.49,6223.60
890.87,6254.60
891.25,6282.37
891.63,6306.55
892.01,6326.86
892.39,6343.06
892.77,6355.00
893.15,6362.60
893.53,6365.87
893.91,6364.88
894.29,6359.78
894.67,6350.73
895.05,6337.91
895.43,6321.49
895.81,6301.61
896.19,6278.40
896.57,6251.96
896.95,6222.40
897.32,6189.83
897.70,6154.40
898.08,6116.32
898.46,6075.85
898.84,6033.28
899.22,5988.97
899.60,5943.26
899.98,5896.50
900.35,5849.02
900.73,5801.07
901.11,5752.88
901.49,5704.61
901.87,5656.39
902.25,5608.28
902.63,5560.35
903.00,5512.63
903.38,5465.16
903.76,5417.94
904.14,5371.00
904.52,5324.36
904.89,5278.04
905.27,5232.07
905.65,5186.52
906.03,5141.45
906.40,5096.97
906.78,5053.19
907.16,5010.27
907.54,4968.33
907.91,4927.51
908.29,4887.92
908.67,4849.63
909.05,4812.69
909.42,4777.10
909.80,4742.85
910.18,4709.91
910.55,4678.26
910.93,4647.89
911.31,4618.81
911.68,4591.04
912.06,4564.60
912.44,4539.54
912.82,4515.86
913.19,4493.57
913.57,4472.62
913.94,4452.93
914.32,4434.38
914.70,4416.83
915.07,4400.10
915.45,4384.00
915.83,4368.36
916.20,4353.03
916.58,4337.89
916.95,4322.87
917.33,4307.94
917.71,4293.12
918.08,4278.47
918.46,4264.08
918.83,4250.05
919.21,4236.49
919.58,4223.47
919.96,4211.09
920.34,4199.37
920.71,4188.36
921.09,4178.05
921.46,4168.43
921.84,4159.47
922.21,4151.09
922.59,4143.22
922.96,4135.76
923.34,4128.55
923.71,4121.44
924.09,4114.25
924.46,4106.77
924.84,4098.83
925.21,4090.27
925.59,4080.96
925.96,4070.84
926.34,4059.89
926.71,4048.16
927.08,4035.74
927.46,4022.74
927.83,4009.29
928.21,3995.49
928.58,3981.43
928.96,3967.13
929.33,3952.59
929.70,3937.72
930.08,3922.43
930.45,3906.61
930.83,3890.15
931.20,3872.97
931.57,3855.03
931.95,3836.36
932.32,3817.01
932.69,3797.09
933.07,3776.73
933.44,3756.05
933.81,3735.17
934.19,3714.17
934.56,3693.12
934.93,3672.05
935.31,3650.99
935.68,3630.00
936.05,3609.14
936.43,3588.51
936.80,3568.22
937.17,3548.44
937.54,3529.29
937.92,3510.93
938.29,3493.45
938.66,3476.89
939.03,3461.26
939.41,3446.47
939.78,3432.42
940.15,3418.95
940.52,3405.91
940.90,3393.15
941.27,3380.53
941.64,3367.97
942.01,3355.41
942.38,3342.86
942.76,3330.32
943.13,3317.87
943.50,3305.57
943.87,3293.50
944.24,3281.75
944.61,3270.38
944.99,3259.46
945.36,3249.04
945.73,3239.14
946.10,3229.76
946.47,3220.87
946.84,3212.40
947.21,3204.27
947.59,3196.34
947.96,3188.44
948.33,3180.40
948.70,3172.02
949.07,3163.14
949.44,3153.60
949.81,3143.30
950.18,3132.18
950.55,3120.24
950.92,3107.52
951.29,3094.13
951.66,3080.16
952.03,3065.76
952.41,3051.03
952.78,3036.08
953.15,3021.00
953.52,3005.86
953.89,2990.71
954.26,2975.63
954.63,2960.67
955.00,2945.94
955.37,2931.57
955.74,2917.69
956.11,2904.45
956.48,2891.97
956.84,2880.32
957.21,2869.51
957.58,2859.47
957.95,2850.03
958.32,2840.96
958.69,2831.95
959.06,2822.68
959.43,2812.82
959.80,2802.11
960.17,2790.35
960.54,2777.43
960.91,2763.36
961.28,2748.23
961.64,2732.19
962.01,2715.48
962.38,2698.32
962.75,2680.96
963.12,2663.59
963.49,2646.40
963.86,2629.50
964.22,2613.00
964.59,2596.93
964.96,2581.35
965.33,2566.27
965.70,2551.70
966.07,2537.64
966.43,2524.10
966.80,2511.07
967.17,2498.53
967.54,2486.47
967.91,2474.83
968.27,2463.59
968.64,2452.68
969.01,2442.08
969.38,2431.72
969.74,2421.60
970.11,2411.66
970.48,2401.91
970.85,2392.33
971.21,2382.89
971.58,2373.57
971.95,2364.37
972.31,2355.24
972.68,2346.18
973.05,2337.16
973.42,2328.20
973.78,2319.30
974.15,2310.48
974.52,2301.79
974.88,2293.23
975.25,2284.80
975.62,2276.47
975.98,2268.16
976.35,2259.75
976.72,2251.11
977.08,2242.08
977.45,2232.53
977.81,2222.35
978.18,2211.48
978.55,2199.96
978.91,2187.88
979.28,2175.38
979.64,2162.67
980.01,2149.96
980.38,2137.47
980.74,2125.37
981.11,2113.77
981.47,2102.75
981.84,2092.30
982.20,2082.37
982.57,2072.88
982.93,2063.71
983.30,2054.75
983.66,2045.90
984.03,2037.05
984.39,2028.15
984.76,2019.16
985.12,2010.05
985.49,2000.85
985.85,1991.58
986.22,1982.29
986.58,1973.03
986.95,1963.85
987.31,1954.81
987.68,1945.94
988.04,1937.25
988.41,1928.72
988.77,1920.33
989.13,1912.02
989.50,1903.70
989.86,1895.28
990.23,1886.67
990.59,1877.79
990.96,1868.57
991.32,1858.97
991.68,1849.02
992.05,1838.78
992.41,1828.37
992.77,1817.95
993.14,1807.69
993.50,1797.81
993.86,1788.47
994.23,1779.84
994.59,1772.00
994.95,1764.96
995.32,1758.67
995.68,1753.02
996.04,1747.82
996.41,1742.89
996.77,1738.03
997.13,1733.06
997.50,1727.88
997.86,1722.43
998.22,1716.69
998.58,1710.74
998.95,1704.64
999.31,1698.50
999.67,1692.38
1000.03,1686.33
1000.40,1680.35
1000.76,1674.39
1001.12,1668.38
1001.48,1662.19
1001.84,1655.72
1002.21,1648.87
1002.57,1641.55
1002.93,1633.75
1003.29,1625.47
1003.65,1616.80
1004.02,1607.82
1004.38,1598.70
1004.74,1589.59
1005.10,1580.67
1005.46,1572.09
1005.82,1564.01
1006.19,1556.52
1006.55,1549.70
1006.91,1543.57
1007.27,1538.13
1007.63,1533.30
1007.99,1528.99
1008.35,1525.07
1008.71,1521.37
1009.07,1517.74
1009.43,1514.03
1009.80,1510.09
1010.16,1505.82
1010.52,1501.15
1010.88,1496.07
1011.24,1490.60
1011.60,1484.83
1011.96,1478.86
1012.32,1472.83
1012.68,1466.88
1013.04,1461.13
1013.40,1455.68
1013.76,1450.60
1014.12,1445.91
1014.48,1441.58
1014.84,1437.56
1015.20,1433.77
1015.56,1430.10
1015.92,1426.47
1016.28,1422.79
1016.64,1419.02
1017.00,1415.12
1017.36,1411.09
1017.72,1406.97
1018.07,1402.79
1018.43,1398.61
1018.79,1394.52
1019.15,1390.55
1019.51,1386.78
1019.87,1383.24
1020.23,1379.95
1020.59,1376.92
1020.95,1374.11
1021.31,1371.48
1021.66,1368.98
1022.02,1366.53
1022.38,1364.03
1022.74,1361.41
1023.10,1358.56
1023.46,1355.42
1023.81,1351.93
1024.17,1348.04
1024.53,1343.74
1024.89,1339.03
1025.25,1333.95
1025.60,1328.51
1025.96,1322.77
1026.32,1316.80
1026.68,1310.67
1027.04,1304.34
1027.39,1297.38
1027.75,1290.81
1028.11,1284.83
1028.47,1279.63
1028.82,1269.52
1029.18,1246.76
1029.54,1274.58
1029.90,1274.58
1030.25,1274.58
