wavelength,counts
188.65,574.47
189.10,574.47
189.56,574.47
190.01,574.47
190.47,574.47
190.92,619.60
191.37,637.60
191.83,657.42
192.28,678.57
192.74,700.47
193.19,722.47
193.64,743.93
194.10,765.47
194.55,786.92
195.01,808.18
195.46,829.17
195.91,849.83
196.37,870.12
196.82,889.96
197.27,909.28
197.73,928.03
198.18,946.14
198.63,963.53
199.09,980.14
199.54,995.89
199.99,1010.71
200.45,1024.54
200.90,1037.30
201.35,1048.95
201.81,1059.44
202.26,1068.74
202.71,1076.86
203.17,1083.82
203.62,1089.68
204.07,1094.51
204.53,1098.42
204.98,1101.53
205.43,1103.97
205.89,1105.84
206.34,1107.25
206.79,1108.27
207.25,1108.95
207.70,1109.31
208.15,1109.34
208.60,1109.00
209.06,1108.25
209.51,1107.05
209.96,1105.37
210.41,1103.17
210.87,1100.46
211.32,1097.28
211.77,1093.69
212.23,1089.80
212.68,1085.73
213.13,1081.64
213.58,1077.70
214.04,1074.07
214.49,1070.91
214.94,1068.35
215.39,1066.46
215.84,1065.28
216.30,1064.82
216.75,1065.00
217.20,1065.75
217.65,1066.94
218.11,1068.46
218.56,1070.17
219.01,1071.94
219.46,1073.68
219.91,1075.28
220.37,1076.68
220.82,1077.84
221.27,1078.75
221.72,1079.40
222.17,1079.81
222.63,1080.03
223.08,1080.09
223.53,1080.04
223.98,1079.91
224.43,1079.74
224.88,1079.58
225.34,1079.46
225.79,1079.41
226.24,1079.51
226.69,1079.79
227.14,1080.34
227.59,1081.22
228.04,1082.46
228.50,1084.09
228.95,1086.08
229.40,1088.35
229.85,1090.78
230.30,1093.22
230.75,1095.47
231.20,1097.34
231.66,1098.69
232.11,1099.40
232.56,1099.41
233.01,1098.76
233.46,1097.54
233.91,1095.89
234.36,1094.01
234.81,1092.08
235.26,1090.31
235.71,1088.85
236.17,1087.81
236.62,1087.25
237.07,1087.17
237.52,1087.52
237.97,1088.22
238.42,1089.17
238.87,1090.26
239.32,1091.38
239.77,1092.45
240.22,1093.38
240.67,1094.13
241.12,1094.65
241.57,1094.93
242.02,1094.95
242.47,1094.73
242.92,1094.26
243.37,1093.57
243.82,1092.67
244.27,1091.59
244.72,1090.36
245.18,1088.99
245.63,1087.54
246.08,1086.02
246.53,1084.49
246.98,1082.97
247.43,1081.50
247.88,1080.12
248.33,1078.85
248.78,1077.72
249.23,1076.74
249.68,1075.91
250.12,1075.21
250.57,1074.63
251.02,1074.12
251.47,1073.66
251.92,1073.22
252.37,1072.76
252.82,1072.29
253.27,1071.81
253.72,1071.36
254.17,1070.98
254.62,1070.71
255.07,1070.58
255.52,1070.63
255.97,1070.85
256.42,1071.24
256.87,1071.76
257.32,1072.38
257.77,1073.07
258.22,1073.78
258.66,1074.49
259.11,1075.20
259.56,1075.92
260.01,1076.65
260.46,1077.43
260.91,1078.26
261.36,1079.18
261.81,1080.21
262.26,1081.35
262.71,1082.63
263.15,1084.03
263.60,1085.57
264.05,1087.22
264.50,1088.97
264.95,1090.77
265.40,1092.59
265.85,1094.36
266.30,1096.03
266.74,1097.54
267.19,1098.85
267.64,1099.94
268.09,1100.79
268.54,1101.43
268.99,1101.90
269.43,1102.24
269.88,1102.54
270.33,1102.86
270.78,1103.27
271.23,1103.82
271.68,1104.56
272.12,1105.50
272.57,1106.62
273.02,1107.87
273.47,1109.21
273.92,1110.55
274.36,1111.81
274.81,1112.91
275.26,1113.78
275.71,1114.38
276.16,1114.67
276.60,1114.64
277.05,1114.32
277.50,1113.73
277.95,1112.92
278.39,1111.94
278.84,1110.83
279.29,1109.66
279.74,1108.45
280.19,1107.25
280.63,1106.08
281.08,1104.96
281.53,1103.90
281.98,1102.89
282.42,1101.93
282.87,1101.00
283.32,1100.09
283.76,1099.17
284.21,1098.26
284.66,1097.37
285.11,1096.53
285.55,1095.79
286.00,1095.23
286.45,1094.92
286.89,1094.92
287.34,1095.30
287.79,1096.10
288.23,1097.32
288.68,1098.94
289.13,1100.91
289.58,1103.12
290.02,1105.49
290.47,1107.88
290.92,1110.19
291.36,1112.31
291.81,1114.15
292.26,1115.67
292.70,1116.85
293.15,1117.72
293.60,1118.33
294.04,1118.77
294.49,1119.14
294.93,1119.56
295.38,1120.12
295.83,1120.88
296.27,1121.87
296.72,1123.08
297.17,1124.42
297.61,1125.78
298.06,1126.99
298.50,1127.87
298.95,1128.27
299.40,1128.05
299.84,1127.16
300.29,1125.61
300.73,1123.49
301.18,1120.96
301.63,1118.26
302.07,1115.60
302.52,1113.23
302.96,1111.32
303.41,1110.00
303.85,1109.30
304.30,1109.18
304.75,1109.55
305.19,1110.25
305.64,1111.11
306.08,1111.97
306.53,1112.70
306.97,1113.19
307.42,1113.40
307.86,1113.31
308.31,1112.96
308.75,1112.39
309.20,1111.65
309.65,1110.80
310.09,1109.86
310.54,1108.86
310.98,1107.81
311.43,1106.71
311.87,1105.54
312.32,1104.31
312.76,1103.03
313.21,1101.71
313.65,1100.39
314.10,1099.12
314.54,1097.96
314.99,1096.95
315.43,1096.16
315.87,1095.65
316.32,1095.46
316.76,1095.62
317.21,1096.15
317.65,1097.04
318.10,1098.29
318.54,1099.86
318.99,1101.69
319.43,1103.73
319.88,1105.91
320.32,1108.15
320.76,1110.39
321.21,1112.56
321.65,1114.60
322.10,1116.42
322.54,1117.99
322.99,1119.22
323.43,1120.07
323.87,1120.49
324.32,1120.43
324.76,1119.89
325.21,1118.89
325.65,1117.48
326.09,1115.74
326.54,1113.80
326.98,1111.78
327.42,1109.81
327.87,1108.02
328.31,1106.51
328.76,1105.33
329.20,1104.52
329.64,1104.09
330.09,1104.00
330.53,1104.22
330.97,1104.69
331.42,1105.37
331.86,1106.21
332.30,1107.16
332.75,1108.19
333.19,1109.25
333.63,1110.33
334.08,1111.38
334.52,1112.38
334.96,1113.31
335.41,1114.15
335.85,1114.89
336.29,1115.53
336.74,1116.07
337.18,1116.52
337.62,1116.89
338.06,1117.18
338.51,1117.40
338.95,1117.54
339.39,1117.60
339.84,1117.58
340.28,1117.48
340.72,1117.30
341.16,1117.06
341.61,1116.78
342.05,1116.46
342.49,1116.14
342.93,1115.83
343.38,1115.52
343.82,1115.22
344.26,1114.91
344.70,1114.55
345.15,1114.13
345.59,1113.59
346.03,1112.92
346.47,1112.10
346.92,1111.11
347.36,1109.95
347.80,1108.63
348.24,1107.17
348.68,1105.60
349.13,1103.96
349.57,1102.32
350.01,1100.74
350.45,1099.31
350.89,1098.13
351.34,1097.29
351.78,1096.90
352.22,1097.04
352.66,1097.77
353.10,1099.09
353.54,1100.98
353.99,1103.36
354.43,1106.10
354.87,1109.05
355.31,1112.04
355.75,1114.88
356.19,1117.43
356.63,1119.56
357.08,1121.19
357.52,1122.27
357.96,1122.82
358.40,1122.89
358.84,1122.56
359.28,1121.94
359.72,1121.15
360.16,1120.29
360.60,1119.50
361.05,1118.85
361.49,1118.43
361.93,1118.28
362.37,1118.43
362.81,1118.87
363.25,1119.58
363.69,1120.54
364.13,1121.68
364.57,1122.98
365.01,1124.37
365.45,1125.81
365.89,1127.26
366.33,1128.69
366.78,1130.07
367.22,1131.38
367.66,1132.61
368.10,1133.74
368.54,1134.77
368.98,1135.71
369.42,1136.57
369.86,1137.36
370.30,1138.10
370.74,1138.81
371.18,1139.52
371.62,1140.24
372.06,1141.01
372.50,1141.83
372.94,1142.74
373.38,1143.73
373.82,1144.80
374.26,1145.95
374.70,1147.14
375.14,1148.36
375.58,1149.57
376.02,1150.75
376.46,1151.88
376.90,1152.94
377.34,1153.93
377.78,1154.85
378.21,1155.72
378.65,1156.53
379.09,1157.31
379.53,1158.05
379.97,1158.77
380.41,1159.46
380.85,1160.13
381.29,1160.81
381.73,1161.51
382.17,1162.27
382.61,1163.13
383.05,1164.14
383.49,1165.34
383.93,1166.75
384.36,1168.39
384.80,1170.26
385.24,1172.33
385.68,1174.53
386.12,1176.80
386.56,1179.05
387.00,1181.18
387.44,1183.10
387.87,1184.74
388.31,1186.03
388.75,1186.97
389.19,1187.55
389.63,1187.83
390.07,1187.86
390.51,1187.75
390.94,1187.58
391.38,1187.44
391.82,1187.42
392.26,1187.56
392.70,1187.88
393.14,1188.38
393.57,1189.04
394.01,1189.81
394.45,1190.64
394.89,1191.48
395.33,1192.27
395.76,1192.99
396.20,1193.58
396.64,1194.04
397.08,1194.34
397.52,1194.48
397.95,1194.48
398.39,1194.35
398.83,1194.14
399.27,1193.92
399.70,1193.77
400.14,1193.79
400.58,1194.08
401.02,1194.76
401.45,1195.93
401.89,1197.66
402.33,1200.02
402.77,1203.03
403.20,1206.66
403.64,1210.88
404.08,1215.61
404.52,1220.74
404.95,1226.19
405.39,1231.85
405.83,1237.64
406.26,1243.51
406.70,1249.44
407.14,1255.41
407.58,1261.45
408.01,1267.59
408.45,1273.85
408.89,1280.28
409.32,1286.89
409.76,1293.69
410.20,1300.68
410.63,1307.86
411.07,1315.22
411.51,1322.76
411.94,1330.48
412.38,1338.42
412.82,1346.60
413.25,1355.05
413.69,1363.80
414.12,1372.88
414.56,1382.28
415.00,1391.98
415.43,1401.93
415.87,1412.06
416.31,1422.26
416.74,1432.42
417.18,1442.42
417.61,1452.17
418.05,1461.55
418.49,1470.52
418.92,1479.05
419.36,1487.15
419.79,1494.90
420.23,1502.38
420.67,1509.73
421.10,1517.11
421.54,1524.66
421.97,1532.55
422.41,1540.88
422.84,1549.74
423.28,1559.14
423.71,1569.06
424.15,1579.39
424.59,1590.01
425.02,1600.74
425.46,1611.41
425.89,1621.88
426.33,1632.02
426.76,1641.77
427.20,1651.14
427.63,1660.17
428.07,1668.97
428.50,1677.67
428.94,1686.43
429.37,1695.37
429.81,1704.60
430.24,1714.20
430.68,1724.18
431.11,1734.51
431.55,1745.14
431.98,1755.98
432.42,1766.92
432.85,1777.86
433.28,1788.72
433.72,1799.44
434.15,1809.98
434.59,1820.36
435.02,1830.61
435.46,1840.78
435.89,1850.97
436.33,1861.25
436.76,1871.69
437.19,1882.37
437.63,1893.34
438.06,1904.62
438.50,1916.20
438.93,1928.07
439.37,1940.18
439.80,1952.48
440.23,1964.90
440.67,1977.37
441.10,1989.82
441.53,2002.20
441.97,2014.46
442.40,2026.54
442.84,2038.43
443.27,2050.11
443.70,2061.54
444.14,2072.72
444.57,2083.62
445.00,2094.24
445.44,2104.54
445.87,2114.49
446.30,2124.07
446.74,2133.26
447.17,2142.04
447.60,2150.44
448.04,2158.48
448.47,2166.19
448.90,2173.65
449.34,2180.93
449.77,2188.12
450.20,2195.30
450.64,2202.56
451.07,2209.99
451.50,2217.70
451.93,2225.78
452.37,2234.32
452.80,2243.43
453.23,2253.19
453.67,2263.69
454.10,2274.99
454.53,2287.13
454.96,2300.12
455.40,2313.93
455.83,2328.50
456.26,2343.70
456.69,2359.41
457.13,2375.47
457.56,2391.68
457.99,2407.89
458.42,2423.92
458.86,2439.66
459.29,2455.03
459.72,2469.99
460.15,2484.57
460.58,2498.83
461.02,2512.85
461.45,2526.75
461.88,2540.64
462.31,2554.62
462.74,2568.79
463.18,2583.21
463.61,2597.97
464.04,2613.11
464.47,2628.68
464.90,2644.73
465.33,2661.29
465.77,2678.40
466.20,2696.09
466.63,2714.39
467.06,2733.32
467.49,2752.88
467.92,2773.09
468.35,2793.95
468.78,2815.46
469.22,2837.60
469.65,2860.37
470.08,2883.78
470.51,2907.84
470.94,2932.60
471.37,2958.12
471.80,2984.46
472.23,3011.69
472.66,3039.89
473.10,3069.07
473.53,3099.21
473.96,3130.24
474.39,3162.07
474.82,3194.56
475.25,3227.59
475.68,3261.06
476.11,3294.91
476.54,3329.14
476.97,3363.79
477.40,3398.90
477.83,3434.51
478.26,3470.64
478.69,3507.24
479.12,3544.24
479.55,3581.50
479.98,3618.88
480.41,3656.27
480.84,3693.57
481.27,3730.75
481.70,3767.80
482.13,3804.74
482.56,3841.60
482.99,3878.36
483.42,3914.99
483.85,3951.42
484.28,3987.59
484.71,4023.46
485.14,4059.04
485.57,4094.44
486.00,4129.82
486.43,4165.39
486.86,4201.38
487.29,4237.93
487.72,4275.12
488.15,4312.85
488.58,4350.93
489.01,4389.04
489.44,4426.84
489.87,4464.00
490.30,4500.29
490.72,4535.60
491.15,4569.94
491.58,4603.39
492.01,4636.09
492.44,4668.10
492.87,4699.41
493.30,4729.86
493.73,4759.20
494.16,4787.11
494.59,4813.31
495.01,4837.65
495.44,4860.16
495.87,4881.11
496.30,4900.97
496.73,4920.38
497.16,4939.99
497.59,4960.41
498.01,4982.07
498.44,5005.17
498.87,5029.68
499.30,5055.36
499.73,5081.89
500.16,5108.93
500.58,5136.24
501.01,5163.73
501.44,5191.48
501.87,5219.68
502.30,5248.57
502.72,5278.34
503.15,5309.02
503.58,5340.48
504.01,5372.38
504.44,5404.23
504.86,5435.49
505.29,5465.69
505.72,5494.49
506.15,5521.77
506.57,5547.64
507.00,5572.36
507.43,5596.32
507.86,5619.83
508.28,5643.11
508.71,5666.14
509.14,5688.69
509.57,5710.36
509.99,5730.63
510.42,5749.06
510.85,5765.37
511.27,5779.58
511.70,5792.06
512.13,5803.47
512.56,5814.74
512.98,5826.86
513.41,5840.73
513.84,5857.01
514.26,5875.95
514.69,5897.39
515.12,5920.75
515.54,5945.17
515.97,5969.62
516.40,5993.13
516.82,6014.96
517.25,6034.69
517.68,6052.34
518.10,6068.29
518.53,6083.21
518.95,6097.90
519.38,6113.12
519.81,6129.44
520.23,6147.13
520.66,6166.12
521.09,6186.03
521.51,6206.29
521.94,6226.25
522.36,6245.36
522.79,6263.30
523.22,6280.07
523.64,6295.98
524.07,6311.62
524.49,6327.75
524.92,6345.10
525.34,6364.24
525.77,6385.44
526.20,6408.55
526.62,6433.03
527.05,6457.97
527.47,6482.28
527.90,6504.83
528.32,6524.66
528.75,6541.16
529.17,6554.14
529.60,6563.93
530.02,6571.25
530.45,6577.15
530.87,6582.78
531.30,6589.18
531.72,6597.11
532.15,6606.88
532.57,6618.30
533.00,6630.69
533.42,6643.02
533.85,6654.04
534.27,6662.54
534.70,6667.58
535.12,6668.63
535.55,6665.68
535.97,6659.30
536.40,6650.51
536.82,6640.62
537.25,6631.04
537.67,6623.01
538.09,6617.41
538.52,6614.62
538.94,6614.47
539.37,6616.28
539.79,6618.99
540.22,6621.43
540.64,6622.49
541.06,6621.38
541.49,6617.83
541.91,6612.13
542.34,6605.15
542.76,6598.18
543.18,6592.77
543.61,6590.46
544.03,6592.48
544.46,6599.58
544.88,6611.84
545.30,6628.64
545.73,6648.71
546.15,6670.29
546.57,6691.42
547.00,6710.18
547.42,6724.95
547.84,6734.74
548.27,6739.23
548.69,6738.89
549.11,6734.90
549.54,6728.94
549.96,6722.99
550.38,6719.02
550.81,6718.70
551.23,6723.15
551.65,6732.78
552.07,6747.23
552.50,6765.41
552.92,6785.67
553.34,6806.01
553.77,6824.37
554.19,6838.93
554.61,6848.35
555.03,6851.94
555.46,6849.78
555.88,6842.65
556.30,6831.95
556.72,6819.49
557.15,6807.20
557.57,6796.84
557.99,6789.81
558.41,6786.86
558.84,6788.07
559.26,6792.73
559.68,6799.55
560.10,6806.73
560.52,6812.30
560.95,6814.32
561.37,6811.24
561.79,6802.10
562.21,6786.68
562.63,6765.60
563.06,6740.29
563.48,6712.80
563.90,6685.61
564.32,6661.30
564.74,6642.28
565.16,6630.45
565.58,6626.99
566.01,6632.20
566.43,6645.46
566.85,6665.32
567.27,6689.64
567.69,6715.92
568.11,6741.54
568.53,6764.09
568.96,6781.68
569.38,6793.13
569.80,6798.11
570.22,6797.13
570.64,6791.46
571.06,6782.96
571.48,6773.75
571.90,6766.01
572.32,6761.59
572.74,6761.81
573.16,6767.27
573.58,6777.72
574.01,6792.14
574.43,6808.82
574.85,6825.57
575.27,6840.05
575.69,6850.03
576.11,6853.68
576.53,6849.89
576.95,6838.37
577.37,6819.74
577.79,6795.50
578.21,6767.88
578.63,6739.58
579.05,6713.50
579.47,6692.36
579.89,6678.44
580.31,6673.32
580.73,6677.66
581.15,6691.17
581.57,6712.62
581.99,6739.97
582.41,6770.63
582.83,6801.70
583.25,6830.30
583.67,6853.89
584.09,6870.50
584.51,6878.99
584.93,6879.17
585.34,6871.80
585.76,6858.55
586.18,6841.83
586.60,6824.53
587.02,6809.77
587.44,6800.54
587.86,6799.38
588.28,6808.18
588.70,6827.91
589.12,6858.56
589.54,6899.11
589.95,6947.66
590.37,7001.61
590.79,7057.91
591.21,7113.40
591.63,7165.08
592.05,7210.48
592.47,7247.85
592.89,7276.37
593.30,7296.20
593.72,7308.52
594.14,7315.35
594.56,7319.38
594.98,7323.68
595.40,7331.36
595.81,7345.29
596.23,7367.77
596.65,7400.31
597.07,7443.42
597.49,7496.64
597.90,7558.51
598.32,7626.74
598.74,7698.43
599.16,7770.32
599.58,7839.15
599.99,7901.87
600.41,7955.97
600.83,7999.68
601.25,8032.07
601.66,8053.18
602.08,8063.95
602.50,8066.12
602.92,8062.10
603.33,8054.66
603.75,8046.74
604.17,8041.14
604.59,8040.23
605.00,8045.79
605.42,8058.80
605.84,8079.36
606.25,8106.75
606.67,8139.50
607.09,8175.53
607.51,8212.41
607.92,8247.60
608.34,8278.69
608.76,8303.65
609.17,8320.98
609.59,8329.88
610.01,8330.29
610.42,8322.92
610.84,8309.16
611.26,8291.00
611.67,8270.84
612.09,8251.31
612.51,8235.08
612.92,8224.56
613.34,8221.77
613.75,8228.14
614.17,8244.34
614.59,8270.30
615.00,8305.12
615.42,8347.22
615.83,8394.49
616.25,8444.42
616.67,8494.40
617.08,8541.92
617.50,8584.76
617.91,8621.22
618.33,8650.20
618.75,8671.30
619.16,8684.80
619.58,8691.63
619.99,8693.30
620.41,8691.72
620.82,8689.08
621.24,8687.67
621.65,8689.69
622.07,8697.10
622.48,8711.46
622.90,8733.79
623.31,8764.51
623.73,8803.35
624.14,8849.44
624.56,8901.30
624.97,8957.00
625.39,9014.30
625.80,9070.85
626.22,9124.32
626.63,9172.62
627.05,9214.06
627.46,9247.44
627.88,9272.11
628.29,9288.08
628.71,9295.91
629.12,9296.73
629.54,9292.17
629.95,9284.16
630.37,9274.89
630.78,9266.60
631.19,9261.45
631.61,9261.34
632.02,9267.78
632.44,9281.79
632.85,9303.84
633.26,9333.81
633.68,9371.01
634.09,9414.30
634.51,9462.14
634.92,9512.77
635.33,9564.28
635.75,9614.81
636.16,9662.63
636.57,9706.26
636.99,9744.51
637.40,9776.56
637.82,9802.02
638.23,9820.87
638.64,9833.51
639.06,9840.73
639.47,9843.63
639.88,9843.59
640.30,9842.17
640.71,9841.03
641.12,9841.84
641.53,9846.14
641.95,9855.28
642.36,9870.32
642.77,9891.95
643.19,9920.44
643.60,9955.62
644.01,9996.88
644.42,10043.21
644.84,10093.25
645.25,10145.38
645.66,10197.87
646.08,10248.98
646.49,10297.09
646.90,10340.86
647.31,10379.28
647.73,10411.81
648.14,10438.34
648.55,10459.24
648.96,10475.29
649.37,10487.62
649.79,10497.61
650.20,10506.80
650.61,10516.74
651.02,10528.94
651.43,10544.73
651.85,10565.22
652.26,10591.20
652.67,10623.10
653.08,10660.97
653.49,10704.50
653.90,10752.99
654.32,10805.43
654.73,10860.56
655.14,10916.96
655.55,10973.10
655.96,11027.50
656.37,11078.78
656.78,11125.77
657.20,11167.54
657.61,11203.52
658.02,11233.45
658.43,11257.48
658.84,11276.09
659.25,11290.09
659.66,11300.61
660.07,11308.97
660.48,11316.64
660.90,11325.14
661.31,11335.95
661.72,11350.38
662.13,11369.50
662.54,11394.06
662.95,11424.44
663.36,11460.67
663.77,11502.38
664.18,11548.90
664.59,11599.29
665.00,11652.45
665.41,11707.15
665.82,11762.15
666.23,11816.21
666.64,11868.17
667.05,11916.99
667.46,11961.73
667.87,12001.61
668.28,12036.03
668.69,12064.60
669.10,12087.13
669.51,12103.70
669.92,12114.64
670.33,12120.54
670.74,12122.27
671.15,12120.91
671.56,12117.75
671.97,12114.15
672.38,12111.55
672.79,12111.30
673.20,12114.60
673.61,12122.44
674.02,12135.45
674.42,12153.94
674.83,12177.84
675.24,12206.69
675.65,12239.72
676.06,12275.90
676.47,12314.03
676.88,12352.80
677.29,12390.93
677.70,12427.20
678.11,12460.55
678.51,12490.07
678.92,12515.06
679.33,12535.05
679.74,12549.76
680.15,12559.11
680.56,12563.23
680.97,12562.47
681.37,12557.35
681.78,12548.60
682.19,12537.10
682.60,12523.90
683.01,12510.17
683.42,12497.12
683.82,12485.97
684.23,12477.87
684.64,12473.85
685.05,12474.76
685.45,12481.21
685.86,12493.56
686.27,12511.89
686.68,12535.99
687.09,12565.39
687.49,12599.30
687.90,12636.71
688.31,12676.37
688.72,12716.85
689.12,12756.60
689.53,12794.01
689.94,12827.52
690.35,12855.68
690.75,12877.28
691.16,12891.43
691.57,12897.59
691.97,12895.66
692.38,12885.98
692.79,12869.34
693.20,12846.91
693.60,12820.20
694.01,12790.97
694.42,12761.13
694.82,12732.66
695.23,12707.46
695.64,12687.24
696.04,12673.48
696.45,12667.27
696.86,12669.33
697.26,12679.90
697.67,12698.80
698.07,12725.43
698.48,12758.83
698.89,12797.73
699.29,12840.67
699.70,12886.04
700.11,12932.20
700.51,12977.52
700.92,13020.51
701.32,13059.78
701.73,13094.16
702.14,13122.68
702.54,13144.63
702.95,13159.52
703.35,13167.13
703.76,13167.48
704.16,13160.87
704.57,13147.87
704.97,13129.30
705.38,13106.22
705.79,13079.95
706.19,13051.95
706.60,13023.82
707.00,12997.19
707.41,12973.63
707.81,12954.58
708.22,12941.23
708.62,12934.47
709.03,12934.85
709.43,12942.55
709.84,12957.40
710.24,12978.94
710.65,13006.46
711.05,13039.08
711.46,13075.79
711.86,13115.55
712.27,13157.28
712.67,13199.89
713.07,13242.32
713.48,13283.48
713.88,13322.31
714.29,13357.74
714.69,13388.70
715.10,13414.20
715.50,13433.28
715.90,13445.15
716.31,13449.24
716.71,13445.23
717.12,13433.15
717.52,13413.40
717.92,13386.80
718.33,13354.56
718.73,13318.21
719.14,13279.61
719.54,13240.75
719.94,13203.70
720.35,13170.47
720.75,13142.88
721.15,13122.47
721.56,13110.39
721.96,13107.36
722.36,13113.62
722.77,13128.95
723.17,13152.65
723.57,13183.65
723.98,13220.54
724.38,13261.69
724.78,13305.36
725.19,13349.77
725.59,13393.22
725.99,13434.19
726.39,13471.34
726.80,13503.58
727.20,13530.08
727.60,13550.22
728.00,13563.59
728.41,13569.97
728.81,13569.31
729.21,13561.67
729.61,13547.30
730.02,13526.57
730.42,13500.03
730.82,13468.41
731.22,13432.61
731.63,13393.72
732.03,13352.96
732.43,13311.67
732.83,13271.25
733.23,13233.08
733.64,13198.46
734.04,13168.55
734.44,13144.27
734.84,13126.30
735.24,13115.02
735.64,13110.51
736.05,13112.55
736.45,13120.68
736.85,13134.17
737.25,13152.13
737.65,13173.50
738.05,13197.12
738.45,13221.73
738.86,13246.08
739.26,13268.88
739.66,13288.93
740.06,13305.08
740.46,13316.32
740.86,13321.82
741.26,13320.89
741.66,13313.08
742.06,13298.12
742.46,13275.94
742.87,13246.66
743.27,13210.55
743.67,13168.06
744.07,13119.78
744.47,13066.45
744.87,13008.97
745.27,12948.41
745.67,12886.06
746.07,12823.34
746.47,12761.91
746.87,12703.50
747.27,12650.00
747.67,12603.25
748.07,12565.04
748.47,12536.95
748.87,12520.27
749.27,12515.89
749.67,12524.23
750.07,12545.20
750.47,12578.19
750.87,12622.11
751.27,12675.46
751.67,12736.43
752.07,12802.97
752.47,12872.94
752.87,12944.19
753.27,13014.60
753.66,13082.16
754.06,13144.99
754.46,13201.32
754.86,13249.53
755.26,13288.12
755.66,13315.75
756.06,13331.25
756.46,13333.66
756.86,13322.30
757.26,13296.80
757.65,13257.16
758.05,13203.79
758.45,13137.52
758.85,13059.57
759.25,12971.57
759.65,12875.45
760.05,12773.41
760.44,12667.77
760.84,12560.93
761.24,12455.22
761.64,12352.82
762.04,12255.67
762.44,12165.39
762.83,12083.26
763.23,12010.13
763.63,11946.45
764.03,11892.26
764.43,11847.25
764.82,11810.74
765.22,11781.81
765.62,11759.33
766.02,11742.04
766.41,11728.66
766.81,11717.92
767.21,11708.62
767.61,11699.67
768.00,11690.09
768.40,11679.00
768.80,11665.60
769.20,11649.15
769.59,11628.93
769.99,11604.25
770.39,11574.43
770.79,11538.84
771.18,11496.91
771.58,11448.22
771.98,11392.47
772.37,11329.61
772.77,11259.81
773.17,11183.49
773.56,11101.34
773.96,11014.30
774.36,10923.53
774.75,10830.39
775.15,10736.37
775.55,10643.08
775.94,10552.14
776.34,10465.18
776.73,10383.72
777.13,10309.14
777.53,10242.62
777.92,10185.06
778.32,10137.06
778.72,10098.90
779.11,10070.47
779.51,10051.39
779.90,10040.92
780.30,10038.10
780.69,10041.77
781.09,10050.63
781.49,10063.34
781.88,10078.51
782.28,10094.82
782.67,10111.00
783.07,10125.85
783.46,10138.26
783.86,10147.22
784.25,10151.81
784.65,10151.20
785.04,10144.68
785.44,10131.66
785.83,10111.70
786.23,10084.49
786.62,10049.89
787.02,10007.94
787.41,9958.86
787.81,9903.02
788.20,9841.00
788.60,9773.52
788.99,9701.48
789.39,9625.92
789.78,9548.03
790.18,9469.09
790.57,9390.46
790.97,9313.53
791.36,9239.67
791.75,9170.19
792.15,9106.24
792.54,9048.86
792.94,8998.87
793.33,8956.87
793.72,8923.28
794.12,8898.25
794.51,8881.72
794.91,8873.40
795.30,8872.78
795.69,8879.15
796.09,8891.61
796.48,8909.13
796.87,8930.56
797.27,8954.71
797.66,8980.34
798.05,9006.29
798.45,9031.40
798.84,9054.63
799.23,9075.00
799.63,9091.62
800.02,9103.70
800.41,9110.53
800.81,9111.50
801.20,9106.12
801.59,9094.04
801.99,9075.02
802.38,9049.00
802.77,9016.07
803.16,8976.49
803.56,8930.64
803.95,8879.04
804.34,8822.29
804.73,8761.11
805.13,8696.28
805.52,8628.62
805.91,8559.02
806.30,8488.40
806.69,8417.70
807.09,8347.88
807.48,8279.90
807.87,8214.72
808.26,8153.29
808.66,8096.49
809.05,8045.15
809.44,8000.02
809.83,7961.71
810.22,7930.70
810.61,7907.25
811.01,7891.43
811.40,7883.11
811.79,7881.88
812.18,7887.19
812.57,7898.24
812.96,7914.16
813.35,7933.96
813.75,7956.61
814.14,7981.07
814.53,8006.33
814.92,8031.43
815.31,8055.43
815.70,8077.44
816.09,8096.63
816.48,8112.22
816.87,8123.48
817.26,8129.80
817.65,8130.65
818.04,8125.65
818.44,8114.54
818.83,8097.23
819.22,8073.72
819.61,8044.15
820.00,8008.75
820.39,7967.82
820.78,7921.70
821.17,7870.81
821.56,7815.62
821.95,7756.67
822.34,7694.58
822.73,7630.09
823.12,7564.01
823.51,7497.26
823.90,7430.81
824.29,7365.66
824.68,7302.81
825.07,7243.19
825.46,7187.65
825.85,7136.88
826.24,7091.44
826.62,7051.74
827.01,7018.01
827.40,6990.37
827.79,6968.82
828.18,6953.29
828.57,6943.61
828.96,6939.56
829.35,6940.83
829.74,6947.04
830.13,6957.70
830.52,6972.23
830.90,6989.92
831.29,7010.01
831.68,7031.64
832.07,7053.96
832.46,7076.14
832.85,7097.39
833.24,7117.03
833.62,7134.46
834.01,7149.23
834.40,7160.94
834.79,7169.30
835.18,7174.10
835.57,7175.17
835.95,7172.37
836.34,7165.59
836.73,7154.74
837.12,7139.75
837.51,7120.55
837.89,7097.11
838.28,7069.43
838.67,7037.55
839.06,7001.59
839.44,6961.76
839.83,6918.37
840.22,6871.83
840.61,6822.71
840.99,6771.67
841.38,6719.48
841.77,6667.01
842.16,6615.18
842.54,6564.92
842.93,6517.19
843.32,6472.85
843.70,6432.72
844.09,6397.46
844.48,6367.59
844.86,6343.47
845.25,6325.24
845.64,6312.87
846.02,6306.14
846.41,6304.69
846.80,6308.04
847.18,6315.64
847.57,6326.90
847.96,6341.24
848.34,6358.15
848.73,6377.15
849.12,6397.85
849.50,6419.89
849.89,6442.98
850.27,6466.82
850.66,6491.09
851.05,6515.47
851.43,6539.56
851.82,6562.93
852.20,6585.12
852.59,6605.64
852.97,6624.01
853.36,6639.80
853.75,6652.62
854.13,6662.16
854.52,6668.19
854.90,6670.59
855.29,6669.28
855.67,6664.26
856.06,6655.58
856.44,6643.29
856.83,6627.47
857.21,6608.23
857.60,6585.69
857.98,6560.01
858.37,6531.40
858.75,6500.15
859.14,6466.67
859.52,6431.41
859.91,6394.95
860.29,6357.92
860.68,6320.99
861.06,6284.81
861.44,6250.00
861.83,6217.10
862.21,6186.54
862.60,6158.63
862.98,6133.58
863.37,6111.53
863.75,6092.52
864.13,6076.58
864.52,6063.73
864.90,6054.00
865.29,6047.47
865.67,6044.24
866.05,6044.43
866.44,6048.15
866.82,6055.44
867.20,6066.28
867.59,6080.50
867.97,6097.79
868.35,6117.67
868.74,6139.51
869.12,6162.57
869.50,6186.04
869.89,6209.12
870.27,6231.05
870.65,6251.23
871.04,6269.18
871.42,6284.62
871.80,6297.44
872.19,6307.68
872.57,6315.45
872.95,6320.95
873.33,6324.38
873.72,6325.91
874.10,6325.69
874.48,6323.84
874.86,6320.45
875.25,6315.62
875.63,6309.46
876.01,6302.12
876.39,6293.79
876.77,6284.73
877.16,6275.20
877.54,6265.55
877.92,6256.13
878.30,6247.32
878.68,6239.51
879.07,6233.07
879.45,6228.36
879.83,6225.70
880.21,6225.37
880.59,6227.57
880.97,6232.46
881.36,6240.17
881.74,6250.75
882.12,6264.29
882.50,6280.85
882.88,6300.54
883.26,6323.54
883.64,6350.04
884.02,6380.29
884.41,6414.54
884.79,6453.02
885.17,6495.86
885.55,6543.08
885.93,6594.53
886.31,6649.88
886.69,6708.60
887.07,6769.97
887.45,6833.14
887.83,6897.15
888.21,6960.99
888.59,7023.67
888.97,7084.25
889.35,7141.85
889.73,7195.76
890.11,7245.34
890.49,7290.11
890.87,7329.69
891.25,7363.81
891.63,7392.31
892.01,7415.08
892.39,7432.09
892.77,7443.32
893.15,7448.81
893.53,7448.59
893.91,7442.72
894.29,7431.23
894.67,7414.19
895.05,7391.67
895.43,7363.78
895.81,7330.64
896.19,7292.44
896.57,7249.37
896.95,7201.69
897.32,7149.66
897.70,7093.57
898.08,7033.70
898.46,6970.36
898.84,6903.82
899.22,6834.43
899.60,6762.54
899.98,6688.56
900.35,6613.00
900.73,6536.42
901.11,6459.49
901.49,6382.93
901.87,6307.49
902.25,6233.91
902.63,6162.91
903.00,6095.08
903.38,6030.92
903.76,5970.77
904.14,5914.81
904.52,5863.10
904.89,5815.55
905.27,5772.00
905.65,5732.17
906.03,5695.78
906.40,5662.49
906.78,5631.95
907.16,5603.80
907.54,5577.69
907.91,5553.26
908.29,5530.16
908.67,5508.08
909.05,5486.72
909.42,5465.81
909.80,5445.14
910.18,5424.52
910.55,5403.80
910.93,5382.85
911.31,5361.51
911.68,5339.66
912.06,5317.14
912.44,5293.78
912.82,5269.42
913.19,5243.93
913.57,5217.26
913.94,5189.38
914.32,5160.38
914.70,5130.41
915.07,5099.71
915.45,5068.52
915.83,5037.11
916.20,5005.72
916.58,4974.56
916.95,4943.73
917.33,4913.32
917.71,4883.33
918.08,4853.71
918.46,4824.43
918.83,4795.44
919.21,4766.71
919.58,4738.24
919.96,4710.08
920.34,4682.31
920.71,4655.05
921.09,4628.43
921.46,4602.60
921.84,4577.70
922.21,4553.86
922.59,4531.19
922.96,4509.76
923.34,4489.60
923.71,4470.71
924.09,4453.03
924.46,4436.48
924.84,4420.96
925.21,4406.32
925.59,4392.44
925.96,4379.17
926.34,4366.38
926.71,4353.95
927.08,4341.77
927.46,4329.75
927.83,4317.81
928.21,4305.89
928.58,4293.97
928.96,4282.03
929.33,4270.10
929.70,4258.24
930.08,4246.49
930.45,4234.95
930.83,4223.68
931.20,4212.71
931.57,4202.05
931.95,4191.65
932.32,4181.41
932.69,4171.16
933.07,4160.72
933.44,4149.87
933.81,4138.39
934.19,4126.11
934.56,4112.88
934.93,4098.64
935.31,4083.39
935.68,4067.22
936.05,4050.27
936.43,4032.74
936.80,4014.82
937.17,3996.74
937.54,3978.67
937.92,3960.74
938.29,3943.03
938.66,3925.56
939.03,3908.28
939.41,3891.12
939.78,3873.98
940.15,3856.71
940.52,3839.18
940.90,3821.27
941.27,3802.84
941.64,3783.78
942.01,3763.98
942.38,3743.37
942.76,3721.91
943.13,3699.63
943.50,3676.60
943.87,3652.94
944.24,3628.85
944.61,3604.54
944.99,3580.26
945.36,3556.23
945.73,3532.67
946.10,3509.73
946.47,3487.51
946.84,3466.07
947.21,3445.44
947.59,3425.63
947.96,3406.62
948.33,3388.42
948.70,3371.04
949.07,3354.51
949.44,3338.81
949.81,3323.96
950.18,3309.92
950.55,3296.65
950.92,3284.05
951.29,3272.05
951.66,3260.55
952.03,3249.46
952.41,3238.72
952.78,3228.29
953.15,3218.17
953.52,3208.37
953.89,3198.91
954.26,3189.82
954.63,3181.12
955.00,3172.81
955.37,3164.85
955.74,3157.17
956.11,3149.67
956.48,3142.21
956.84,3134.61
957.21,3126.68
957.58,3118.23
957.95,3109.07
958.32,3099.07
958.69,3088.09
959.06,3076.10
959.43,3063.08
959.80,3049.10
960.17,3034.25
960.54,3018.68
960.91,3002.55
961.28,2986.03
961.64,2969.28
962.01,2952.44
962.38,2935.64
962.75,2918.93
963.12,2902.36
963.49,2885.92
963.86,2869.57
964.22,2853.25
964.59,2836.90
964.96,2820.46
965.33,2803.88
965.70,2787.18
966.07,2770.35
966.43,2753.47
966.80,2736.59
967.17,2719.81
967.54,2703.19
967.91,2686.79
968.27,2670.64
968.64,2654.77
969.01,2639.15
969.38,2623.77
969.74,2608.61
970.11,2593.64
970.48,2578.84
970.85,2564.21
971.21,2549.75
971.58,2535.46
971.95,2521.37
972.31,2507.47
972.68,2493.81
973.05,2480.41
973.42,2467.32
973.78,2454.58
974.15,2442.23
974.52,2430.30
974.88,2418.81
975.25,2407.73
975.62,2397.02
975.98,2386.59
976.35,2376.33
976.72,2366.16
977.08,2355.95
977.45,2345.65
977.81,2335.20
978.18,2324.59
978.55,2313.83
978.91,2302.96
979.28,2292.02
979.64,2281.06
980.01,2270.11
980.38,2259.22
980.74,2248.40
981.11,2237.71
981.47,2227.17
981.84,2216.85
982.20,2206.79
982.57,2197.03
982.93,2187.61
983.30,2178.52
983.66,2169.72
984.03,2161.14
984.39,2152.66
984.76,2144.16
985.12,2135.53
985.49,2126.66
985.85,2117.51
986.22,2108.06
986.58,2098.37
986.95,2088.51
987.31,2078.58
987.68,2068.70
988.04,2058.92
988.41,2049.31
988.77,2039.88
989.13,2030.61
989.50,2021.45
989.86,2012.37
990.23,2003.34
990.59,1994.35
990.96,1985.40
991.32,1976.53
991.68,1967.77
992.05,1959.12
992.41,1950.60
992.77,1942.17
993.14,1933.78
993.50,1925.35
993.86,1916.79
994.23,1908.02
994.59,1898.97
994.95,1889.60
995.32,1879.90
995.68,1869.87
996.04,1859.54
996.41,1848.99
996.77,1838.26
997.13,1827.41
997.50,1816.51
997.86,1805.60
998.22,1794.72
998.58,1783.90
998.95,1773.16
999.31,1762.52
999.67,1752.01
1000.03,1741.67
1000.40,1731.55
1000.76,1721.71
1001.12,1712.26
1001.48,1703.27
1001.84,1694.84
1002.21,1687.04
1002.57,1679.93
1002.93,1673.50
1003.29,1667.75
1003.65,1662.58
1004.02,1657.89
1004.38,1653.56
1004.74,1649.44
1005.10,1645.39
1005.46,1641.31
1005.82,1637.10
1006.19,1632.72
1006.55,1628.11
1006.91,1623.28
1007.27,1618.22
1007.63,1612.93
1007.99,1607.41
1008.35,1601.66
1008.71,1595.69
1009.07,1589.52
1009.43,1583.18
1009.80,1576.75
1010.16,1570.31
1010.52,1563.97
1010.88,1557.82
1011.24,1551.96
1011.60,1546.42
1011.96,1541.21
1012.32,1536.28
1012.68,1531.52
1013.04,1526.79
1013.40,1521.91
1013.76,1516.73
1014.12,1511.11
1014.48,1504.98
1014.84,1498.31
1015.20,1491.15
1015.56,1483.63
1015.92,1475.89
1016.28,1468.15
1016.64,1460.59
1017.00,1453.39
1017.36,1446.68
1017.72,1440.54
1018.07,1434.99
1018.43,1429.98
1018.79,1425.41
1019.15,1421.14
1019.51,1417.04
1019.87,1412.95
1020.23,1408.76
1020.59,1404.37
1020.95,1399.75
1021.31,1394.90
1021.66,1389.86
1022.02,1384.71
1022.38,1379.55
1022.74,1374.48
1023.10,1369.60
1023.46,1364.99
1023.81,1360.72
1024.17,1356.85
1024.53,1353.44
1024.89,1350.50
1025.25,1348.08
1025.60,1346.24
1025.96,1345.01
1026.32,1344.35
1026.68,1344.19
1027.04,1344.74
1027.39,1347.30
1027.75,1348.84
1028.11,1349.22
1028.47,1348.35
1028.82,1358.00
1029.18,1408.53
1029.54,1307.45
1029.90,1307.45
1030.25,1307.45
