wavelength,counts
188.65,584.65
189.10,584.65
189.56,584.65
190.01,584.65
190.47,584.65
190.92,625.05
191.37,641.38
191.83,659.56
192.28,679.17
192.74,699.74
193.19,720.74
193.64,741.60
194.10,762.87
194.55,784.38
195.01,806.05
195.46,827.77
195.91,849.47
196.37,871.09
196.82,892.52
197.27,913.67
197.73,934.42
198.18,954.65
198.63,974.21
199.09,992.95
199.54,1010.72
199.99,1027.38
200.45,1042.80
200.90,1056.90
201.35,1069.60
201.81,1080.88
202.26,1090.72
202.71,1099.13
203.17,1106.15
203.62,1111.82
204.07,1116.18
204.53,1119.32
204.98,1121.31
205.43,1122.28
205.89,1122.38
206.34,1121.80
206.79,1120.73
207.25,1119.41
207.70,1118.04
208.15,1116.84
208.60,1115.97
209.06,1115.53
209.51,1115.58
209.96,1116.11
210.41,1117.04
210.87,1118.24
211.32,1119.55
211.77,1120.81
212.23,1121.86
212.68,1122.56
213.13,1122.83
213.58,1122.62
214.04,1121.97
214.49,1120.94
214.94,1119.63
215.39,1118.17
215.84,1116.68
216.30,1115.27
216.75,1114.00
217.20,1112.91
217.65,1112.02
218.11,1111.29
218.56,1110.69
219.01,1110.18
219.46,1109.74
219.91,1109.35
220.37,1109.03
220.82,1108.80
221.27,1108.70
221.72,1108.76
222.17,1108.99
222.63,1109.39
223.08,1109.93
223.53,1110.57
223.98,1111.25
224.43,1111.90
224.88,1112.45
225.34,1112.84
225.79,1113.04
226.24,1113.05
226.69,1112.87
227.14,1112.54
227.59,1112.11
228.04,1111.64
228.50,1111.20
228.95,1110.83
229.40,1110.59
229.85,1110.52
230.30,1110.62
230.75,1110.89
231.20,1111.31
231.66,1111.83
232.11,1112.42
232.56,1113.02
233.01,1113.59
233.46,1114.08
233.91,1114.48
234.36,1114.78
234.81,1114.99
235.26,1115.17
235.71,1115.34
236.17,1115.60
236.62,1115.99
237.07,1116.60
237.52,1117.46
237.97,1118.60
238.42,1120.03
238.87,1121.71
239.32,1123.58
239.77,1125.58
240.22,1127.61
240.67,1129.61
241.12,1131.50
241.57,1133.25
242.02,1134.85
242.47,1136.33
242.92,1137.72
243.37,1139.07
243.82,1140.42
244.27,1141.78
244.72,1143.14
245.18,1144.44
245.63,1145.56
246.08,1146.39
246.53,1146.77
246.98,1146.58
247.43,1145.70
247.88,1144.07
248.33,1141.70
248.78,1138.65
249.23,1135.01
249.68,1130.97
250.12,1126.70
250.57,1122.41
251.02,1118.28
251.47,1114.48
251.92,1111.16
252.37,1108.40
252.82,1106.27
253.27,1104.80
253.72,1103.99
254.17,1103.78
254.62,1104.14
255.07,1104.97
255.52,1106.20
255.97,1107.74
256.42,1109.48
256.87,1111.36
257.32,1113.28
257.77,1115.19
258.22,1117.01
258.66,1118.68
259.11,1120.16
259.56,1121.38
260.01,1122.30
260.46,1122.88
260.91,1123.09
261.36,1122.93
261.81,1122.41
262.26,1121.59
262.71,1120.54
263.15,1119.35
263.60,1118.15
264.05,1117.04
264.50,1116.12
264.95,1115.47
265.40,1115.15
265.85,1115.16
266.30,1115.50
266.74,1116.11
267.19,1116.92
267.64,1117.83
268.09,1118.74
268.54,1119.57
268.99,1120.26
269.43,1120.75
269.88,1121.05
270.33,1121.16
270.78,1121.14
271.23,1121.05
271.68,1120.95
272.12,1120.91
272.57,1120.97
273.02,1121.15
273.47,1121.44
273.92,1121.79
274.36,1122.14
274.81,1122.42
275.26,1122.57
275.71,1122.51
276.16,1122.20
276.60,1121.64
277.05,1120.82
277.50,1119.76
277.95,1118.51
278.39,1117.12
278.84,1115.63
279.29,1114.12
279.74,1112.64
280.19,1111.26
280.63,1110.05
281.08,1109.08
281.53,1108.42
281.98,1108.14
282.42,1108.26
282.87,1108.81
283.32,1109.78
283.76,1111.13
284.21,1112.78
284.66,1114.66
285.11,1116.66
285.55,1118.67
286.00,1120.58
286.45,1122.32
286.89,1123.81
287.34,1125.00
287.79,1125.87
288.23,1126.41
288.68,1126.64
289.13,1126.61
289.58,1126.36
290.02,1125.97
290.47,1125.51
290.92,1125.05
291.36,1124.63
291.81,1124.31
292.26,1124.11
292.70,1124.04
293.15,1124.09
293.60,1124.22
294.04,1124.40
294.49,1124.59
294.93,1124.74
295.38,1124.80
295.83,1124.73
296.27,1124.51
296.72,1124.10
297.17,1123.52
297.61,1122.78
298.06,1121.93
298.50,1121.05
298.95,1120.23
299.40,1119.57
299.84,1119.19
300.29,1119.18
300.73,1119.59
301.18,1120.46
301.63,1121.76
302.07,1123.43
302.52,1125.36
302.96,1127.42
303.41,1129.49
303.85,1131.43
304.30,1133.14
304.75,1134.56
305.19,1135.65
305.64,1136.41
306.08,1136.89
306.53,1137.14
306.97,1137.23
307.42,1137.22
307.86,1137.19
308.31,1137.18
308.75,1137.22
309.20,1137.35
309.65,1137.58
310.09,1137.90
310.54,1138.32
310.98,1138.85
311.43,1139.47
311.87,1140.20
312.32,1141.02
312.76,1141.95
313.21,1142.96
313.65,1144.05
314.10,1145.19
314.54,1146.37
314.99,1147.55
315.43,1148.73
315.87,1149.87
316.32,1150.97
316.76,1152.02
317.21,1153.00
317.65,1153.93
318.10,1154.78
318.54,1155.53
318.99,1156.18
319.43,1156.67
319.88,1156.99
320.32,1157.12
320.76,1157.02
321.21,1156.71
321.65,1156.19
322.10,1155.50
322.54,1154.68
322.99,1153.79
323.43,1152.90
323.87,1152.05
324.32,1151.30
324.76,1150.66
325.21,1150.16
325.65,1149.76
326.09,1149.44
326.54,1149.15
326.98,1148.82
327.42,1148.42
327.87,1147.91
328.31,1147.27
328.76,1146.50
329.20,1145.65
329.64,1144.75
330.09,1143.85
330.53,1143.01
330.97,1142.27
331.42,1141.65
331.86,1141.18
332.30,1140.85
332.75,1140.64
333.19,1140.50
333.63,1140.41
334.08,1140.30
334.52,1140.12
334.96,1139.84
335.41,1139.42
335.85,1138.84
336.29,1138.09
336.74,1137.22
337.18,1136.25
337.62,1135.26
338.06,1134.31
338.51,1133.46
338.95,1132.78
339.39,1132.29
339.84,1132.00
340.28,1131.88
340.72,1131.89
341.16,1131.96
341.61,1132.04
342.05,1132.06
342.49,1131.99
342.93,1131.82
343.38,1131.57
343.82,1131.26
344.26,1130.94
344.70,1130.65
345.15,1130.44
345.59,1130.32
346.03,1130.33
346.47,1130.45
346.92,1130.70
347.36,1131.05
347.80,1131.48
348.24,1131.96
348.68,1132.48
349.13,1133.01
349.57,1133.53
350.01,1134.05
350.45,1134.57
350.89,1135.12
351.34,1135.72
351.78,1136.41
352.22,1137.22
352.66,1138.18
353.10,1139.28
353.54,1140.52
353.99,1141.84
354.43,1143.20
354.87,1144.53
355.31,1145.77
355.75,1146.87
356.19,1147.79
356.63,1148.52
357.08,1149.07
357.52,1149.44
357.96,1149.66
358.40,1149.77
358.84,1149.77
359.28,1149.69
359.72,1149.52
360.16,1149.29
360.60,1148.98
361.05,1148.62
361.49,1148.23
361.93,1147.83
362.37,1147.47
362.81,1147.18
363.25,1147.01
363.69,1146.99
364.13,1147.14
364.57,1147.45
365.01,1147.90
365.45,1148.46
365.89,1149.06
366.33,1149.64
366.78,1150.13
367.22,1150.46
367.66,1150.59
368.10,1150.49
368.54,1150.14
368.98,1149.58
369.42,1148.83
369.86,1147.97
370.30,1147.05
370.74,1146.15
371.18,1145.35
371.62,1144.72
372.06,1144.29
372.50,1144.13
372.94,1144.24
373.38,1144.64
373.82,1145.32
374.26,1146.25
374.70,1147.42
375.14,1148.77
375.58,1150.26
376.02,1151.86
376.46,1153.52
376.90,1155.21
377.34,1156.92
377.78,1158.65
378.21,1160.42
378.65,1162.27
379.09,1164.24
379.53,1166.38
379.97,1168.75
380.41,1171.37
380.85,1174.27
381.29,1177.42
381.73,1180.76
382.17,1184.21
382.61,1187.64
383.05,1190.92
383.49,1193.91
383.93,1196.51
384.36,1198.63
384.80,1200.21
385.24,1201.27
385.68,1201.85
386.12,1202.00
386.56,1201.82
387.00,1201.40
387.44,1200.83
387.87,1200.20
388.31,1199.58
388.75,1199.02
389.19,1198.57
389.63,1198.29
390.07,1198.20
390.51,1198.34
390.94,1198.70
391.38,1199.31
391.82,1200.11
392.26,1201.08
392.70,1202.16
393.14,1203.25
393.57,1204.31
394.01,1205.25
394.45,1206.02
394.89,1206.63
395.33,1207.07
395.76,1207.39
396.20,1207.68
396.64,1208.02
397.08,1208.53
397.52,1209.31
397.95,1210.45
398.39,1212.04
398.83,1214.12
399.27,1216.71
399.70,1219.81
400.14,1223.41
400.58,1227.46
401.02,1231.92
401.45,1236.74
401.89,1241.87
402.33,1247.26
402.77,1252.86
403.20,1258.64
403.64,1264.56
404.08,1270.62
404.52,1276.78
404.95,1283.02
405.39,1289.32
405.83,1295.65
406.26,1301.97
406.70,1308.23
407.14,1314.38
407.58,1320.37
408.01,1326.15
408.45,1331.71
408.89,1337.03
409.32,1342.13
409.76,1347.06
410.20,1351.87
410.63,1356.64
411.07,1361.46
411.51,1366.41
411.94,1371.57
412.38,1376.99
412.82,1382.73
413.25,1388.82
413.69,1395.24
414.12,1401.99
414.56,1409.01
415.00,1416.26
415.43,1423.67
415.87,1431.18
416.31,1438.74
416.74,1446.31
417.18,1453.90
417.61,1461.52
418.05,1469.21
418.49,1477.02
418.92,1484.97
419.36,1493.11
419.79,1501.43
420.23,1509.91
420.67,1518.50
421.10,1527.12
421.54,1535.71
421.97,1544.20
422.41,1552.54
422.84,1560.71
423.28,1568.71
423.71,1576.57
424.15,1584.34
424.59,1592.07
425.02,1599.81
425.46,1607.60
425.89,1615.47
426.33,1623.44
426.76,1631.50
427.20,1639.65
427.63,1647.87
428.07,1656.14
428.50,1664.43
428.94,1672.73
429.37,1680.99
429.81,1689.20
430.24,1697.31
430.68,1705.29
431.11,1713.11
431.55,1720.74
431.98,1728.14
432.42,1735.33
432.85,1742.31
433.28,1749.12
433.72,1755.83
434.15,1762.54
434.59,1769.34
435.02,1776.37
435.46,1783.73
435.89,1791.54
436.33,1799.91
436.76,1808.89
437.19,1818.53
437.63,1828.80
438.06,1839.65
438.50,1850.97
438.93,1862.62
439.37,1874.42
439.80,1886.15
440.23,1897.62
440.67,1908.63
441.10,1919.06
441.53,1928.79
441.97,1937.82
442.40,1946.18
442.84,1953.98
443.27,1961.38
443.70,1968.57
444.14,1975.72
444.57,1982.99
445.00,1990.52
445.44,1998.35
445.87,2006.49
446.30,2014.88
446.74,2023.42
447.17,2031.98
447.60,2040.44
448.04,2048.67
448.47,2056.59
448.90,2064.18
449.34,2071.45
449.77,2078.46
450.20,2085.30
450.64,2092.09
451.07,2098.95
451.50,2106.01
451.93,2113.38
452.37,2121.15
452.80,2129.37
453.23,2138.10
453.67,2147.36
454.10,2157.15
454.53,2167.48
454.96,2178.33
455.40,2189.69
455.83,2201.53
456.26,2213.84
456.69,2226.59
457.13,2239.78
457.56,2253.41
457.99,2267.51
458.42,2282.10
458.86,2297.23
459.29,2312.92
459.72,2329.21
460.15,2346.08
460.58,2363.49
461.02,2381.35
461.45,2399.54
461.88,2417.89
462.31,2436.22
462.74,2454.37
463.18,2472.19
463.61,2489.59
464.04,2506.55
464.47,2523.11
464.90,2539.37
465.33,2555.47
465.77,2571.58
466.20,2587.85
466.63,2604.40
467.06,2621.33
467.49,2638.71
467.92,2656.56
468.35,2674.93
468.78,2693.88
469.22,2713.48
469.65,2733.87
470.08,2755.21
470.51,2777.69
470.94,2801.48
471.37,2826.76
471.80,2853.67
472.23,2882.28
472.66,2912.66
473.10,2944.80
473.53,2978.66
473.96,3014.16
474.39,3051.19
474.82,3089.58
475.25,3129.10
475.68,3169.49
476.11,3210.45
476.54,3251.65
476.97,3292.78
477.40,3333.57
477.83,3373.82
478.26,3413.43
478.69,3452.38
479.12,3490.73
479.55,3528.62
479.98,3566.18
480.41,3603.59
480.84,3640.97
481.27,3678.46
481.70,3716.16
482.13,3754.17
482.56,3792.59
482.99,3831.49
483.42,3870.93
483.85,3910.92
484.28,3951.40
484.71,3992.23
485.14,4033.21
485.57,4074.11
486.00,4114.71
486.43,4154.84
486.86,4194.48
487.29,4233.73
487.72,4272.82
488.15,4312.05
488.58,4351.74
489.01,4392.10
489.44,4433.19
489.87,4474.89
490.30,4516.88
490.72,4558.70
491.15,4599.86
491.58,4639.91
492.01,4678.56
492.44,4715.72
492.87,4751.50
493.30,4786.17
493.73,4820.04
494.16,4853.42
494.59,4886.46
495.01,4919.14
495.44,4951.27
495.87,4982.51
496.30,5012.50
496.73,5040.94
497.16,5067.67
497.59,5092.74
498.01,5116.41
498.44,5139.06
498.87,5161.15
499.30,5183.10
499.73,5205.19
500.16,5227.56
500.58,5250.19
501.01,5272.93
501.44,5295.65
501.87,5318.27
502.30,5340.88
502.72,5363.70
503.15,5387.12
503.58,5411.56
504.01,5437.37
504.44,5464.74
504.86,5493.57
505.29,5523.46
505.72,5553.73
506.15,5583.54
506.57,5612.01
507.00,5638.42
507.43,5662.30
507.86,5683.57
508.28,5702.56
508.71,5719.88
509.14,5736.36
509.57,5752.83
509.99,5769.95
510.42,5788.10
510.85,5807.29
511.27,5827.17
511.70,5847.12
512.13,5866.44
512.56,5884.46
512.98,5900.78
513.41,5915.33
513.84,5928.40
514.26,5940.63
514.69,5952.81
515.12,5965.79
515.54,5980.20
515.97,5996.41
516.40,6014.37
516.82,6033.66
517.25,6053.57
517.68,6073.27
518.10,6092.00
518.53,6109.22
518.95,6124.77
519.38,6138.91
519.81,6152.26
520.23,6165.69
520.66,6180.15
521.09,6196.46
521.51,6215.11
521.94,6236.22
522.36,6259.43
522.79,6284.03
523.22,6309.08
523.64,6333.59
524.07,6356.71
524.49,6377.96
524.92,6397.26
525.34,6415.01
525.77,6431.98
526.20,6449.15
526.62,6467.52
527.05,6487.87
527.47,6510.60
527.90,6535.59
528.32,6562.20
528.75,6589.32
529.17,6615.55
529.60,6639.43
530.02,6659.69
530.45,6675.44
530.87,6686.37
531.30,6692.79
531.72,6695.57
532.15,6696.02
532.57,6695.68
533.00,6696.03
533.42,6698.28
533.85,6703.13
534.27,6710.72
534.70,6720.55
535.12,6731.66
535.55,6742.73
535.97,6752.40
536.40,6759.48
536.82,6763.21
537.25,6763.38
537.67,6760.38
538.09,6755.18
538.52,6749.14
538.94,6743.80
539.37,6740.59
539.79,6740.64
540.22,6744.56
540.64,6752.36
541.06,6763.43
541.49,6776.70
541.91,6790.80
542.34,6804.35
542.76,6816.16
543.18,6825.50
543.61,6832.18
544.03,6836.64
544.46,6839.88
544.88,6843.26
545.30,6848.29
545.73,6856.38
546.15,6868.57
546.57,6885.33
547.00,6906.48
547.42,6931.17
547.84,6958.00
548.27,6985.20
548.69,7010.94
549.11,7033.57
549.54,7051.92
549.96,7065.46
550.38,7074.41
550.81,7079.72
551.23,7082.95
551.65,7086.00
552.07,7090.88
552.50,7099.37
552.92,7112.73
553.34,7131.52
553.77,7155.45
554.19,7183.43
554.61,7213.68
555.03,7243.94
555.46,7271.77
555.88,7294.89
556.30,7311.48
556.72,7320.41
557.15,7321.43
557.57,7315.21
557.99,7303.28
558.41,7287.82
558.84,7271.44
559.26,7256.80
559.68,7246.35
560.10,7241.92
560.52,7244.58
560.95,7254.45
561.37,7270.70
561.79,7291.66
562.21,7315.07
562.63,7338.37
563.06,7359.07
563.48,7375.08
563.90,7385.09
564.32,7388.67
564.74,7386.43
565.16,7379.97
565.58,7371.61
566.01,7364.19
566.43,7360.61
566.85,7363.48
567.27,7374.74
567.69,7395.34
568.11,7425.12
568.53,7462.76
568.96,7505.92
569.38,7551.46
569.80,7595.87
570.22,7635.63
570.64,7667.67
571.06,7689.72
571.48,7700.61
571.90,7700.37
572.32,7690.28
572.74,7672.63
573.16,7650.51
573.58,7627.38
574.01,7606.68
574.43,7591.36
574.85,7583.62
575.27,7584.55
575.69,7594.11
576.11,7611.10
576.53,7633.33
576.95,7657.95
577.37,7681.77
577.79,7701.67
578.21,7715.01
578.63,7719.96
579.05,7715.72
579.47,7702.62
579.89,7682.15
580.31,7656.74
580.73,7629.52
581.15,7603.94
581.57,7583.40
581.99,7570.84
582.41,7568.39
582.83,7577.16
583.25,7597.06
583.67,7626.82
584.09,7664.15
584.51,7705.96
584.93,7748.68
585.34,7788.69
585.76,7822.66
586.18,7847.97
586.60,7862.94
587.02,7867.08
587.44,7861.14
587.86,7847.08
588.28,7827.85
588.70,7807.15
589.12,7789.04
589.54,7777.51
589.95,7776.09
590.37,7787.47
590.79,7813.19
591.21,7853.53
591.63,7907.44
592.05,7972.64
592.47,8045.88
592.89,8123.29
593.30,8200.70
593.72,8274.13
594.14,8340.13
594.56,8396.14
594.98,8440.68
595.40,8473.49
595.81,8495.56
596.23,8508.93
596.65,8516.51
597.07,8521.74
597.49,8528.21
597.90,8539.31
598.32,8557.85
598.74,8585.76
599.16,8623.91
599.58,8672.01
599.99,8728.61
600.41,8791.27
600.83,8856.80
601.25,8921.50
601.66,8981.54
602.08,9033.35
602.50,9073.88
602.92,9100.90
603.33,9113.26
603.75,9110.93
604.17,9095.02
604.59,9067.72
605.00,9032.06
605.42,8991.67
605.84,8950.43
606.25,8912.13
606.67,8880.16
607.09,8857.21
607.51,8845.02
607.92,8844.32
608.34,8854.71
608.76,8874.78
609.17,8902.24
609.59,8934.12
610.01,8967.05
610.42,8997.60
610.84,9022.54
611.26,9039.19
611.67,9045.61
612.09,9040.83
612.51,9024.93
612.92,8999.02
613.34,8965.19
613.75,8926.30
614.17,8885.69
614.59,8846.95
615.00,8813.54
615.42,8788.51
615.83,8774.23
616.25,8772.22
616.67,8782.99
617.08,8806.06
617.50,8840.03
617.91,8882.70
618.33,8931.29
618.75,8982.70
619.16,9033.74
619.58,9081.41
619.99,9123.11
620.41,9156.81
620.82,9181.18
621.24,9195.68
621.65,9200.52
622.07,9196.68
622.48,9185.80
622.90,9170.05
623.31,9151.95
623.73,9134.26
624.14,9119.67
624.56,9110.70
624.97,9109.43
625.39,9117.35
625.80,9135.24
626.22,9163.09
626.63,9200.10
627.05,9244.72
627.46,9294.79
627.88,9347.72
628.29,9400.71
628.71,9450.97
629.12,9495.94
629.54,9533.49
629.95,9562.07
630.37,9580.82
630.78,9589.61
631.19,9589.04
631.61,9580.37
632.02,9565.44
632.44,9546.50
632.85,9526.06
633.26,9506.70
633.68,9490.88
634.09,9480.76
634.51,9478.04
634.92,9483.86
635.33,9498.72
635.75,9522.47
636.16,9554.31
636.57,9592.90
636.99,9636.42
637.40,9682.76
637.82,9729.65
638.23,9774.80
638.64,9816.08
639.06,9851.66
639.47,9880.12
639.88,9900.59
640.30,9912.77
640.71,9916.98
641.12,9914.18
641.53,9905.87
641.95,9894.01
642.36,9880.90
642.77,9868.98
643.19,9860.67
643.60,9858.17
644.01,9863.31
644.42,9877.35
644.84,9900.95
645.25,9934.08
645.66,9976.01
646.08,10025.41
646.49,10080.43
646.90,10138.85
647.31,10198.22
647.73,10256.08
648.14,10310.08
648.55,10358.18
648.96,10398.75
649.37,10430.66
649.79,10453.39
650.20,10466.99
650.61,10472.09
651.02,10469.84
651.43,10461.87
651.85,10450.10
652.26,10436.70
652.67,10423.92
653.08,10413.95
653.49,10408.84
653.90,10410.30
654.32,10419.68
654.73,10437.85
655.14,10465.14
655.55,10501.34
655.96,10545.71
656.37,10597.03
656.78,10653.69
657.20,10713.77
657.61,10775.23
658.02,10835.96
658.43,10894.00
658.84,10947.54
659.25,10995.13
659.66,11035.63
660.07,11068.36
660.48,11093.03
660.90,11109.83
661.31,11119.34
661.72,11122.58
662.13,11120.89
662.54,11115.92
662.95,11109.50
663.36,11103.56
663.77,11100.00
664.18,11100.55
664.59,11106.66
665.00,11119.40
665.41,11139.38
665.82,11166.72
666.23,11201.08
666.64,11241.67
667.05,11287.35
667.46,11336.74
667.87,11388.28
668.28,11440.41
668.69,11491.58
669.10,11540.35
669.51,11585.42
669.92,11625.70
670.33,11660.28
670.74,11688.47
671.15,11709.83
671.56,11724.16
671.97,11731.56
672.38,11732.43
672.79,11727.50
673.20,11717.82
673.61,11704.73
674.02,11689.81
674.42,11674.82
674.83,11661.56
675.24,11651.82
675.65,11647.19
676.06,11649.00
676.47,11658.22
676.88,11675.40
677.29,11700.63
677.70,11733.55
678.11,11773.34
678.51,11818.82
678.92,11868.49
679.33,11920.60
679.74,11973.23
680.15,12024.41
680.56,12072.20
680.97,12114.75
681.37,12150.46
681.78,12178.02
682.19,12196.53
682.60,12205.52
683.01,12205.03
683.42,12195.64
683.82,12178.38
684.23,12154.75
684.64,12126.58
685.05,12095.97
685.45,12065.11
685.86,12036.19
686.27,12011.27
686.68,11992.15
687.09,11980.30
687.49,11976.79
687.90,11982.21
688.31,11996.72
688.72,12019.98
689.12,12051.23
689.53,12089.31
689.94,12132.73
690.35,12179.77
690.75,12228.57
691.16,12277.21
691.57,12323.83
691.97,12366.73
692.38,12404.42
692.79,12435.70
693.20,12459.69
693.60,12475.84
694.01,12483.93
694.42,12484.07
694.82,12476.67
695.23,12462.43
695.64,12442.28
696.04,12417.41
696.45,12389.18
696.86,12359.12
697.26,12328.85
697.67,12300.05
698.07,12274.38
698.48,12253.42
698.89,12238.61
699.29,12231.18
699.70,12232.08
700.11,12241.94
700.51,12261.00
700.92,12289.08
701.32,12325.59
701.73,12369.51
702.14,12419.40
702.54,12473.56
702.95,12530.02
703.35,12586.71
703.76,12641.60
704.16,12692.76
704.57,12738.50
704.97,12777.48
705.38,12808.67
705.79,12831.48
706.19,12845.68
706.60,12851.43
707.00,12849.19
707.41,12839.75
707.81,12824.12
708.22,12803.52
708.62,12779.29
709.03,12752.92
709.43,12725.93
709.84,12699.88
710.24,12676.30
710.65,12656.66
711.05,12642.33
711.46,12634.52
711.86,12634.22
712.27,12642.15
712.67,12658.73
713.07,12684.02
713.48,12717.70
713.88,12759.09
714.29,12807.11
714.69,12860.39
715.10,12917.28
715.50,12975.95
715.90,13034.45
716.31,13090.81
716.71,13143.12
717.12,13189.65
717.52,13228.86
717.92,13259.52
718.33,13280.75
718.73,13292.03
719.14,13293.30
719.54,13284.87
719.94,13267.49
720.35,13242.28
720.75,13210.69
721.15,13174.45
721.56,13135.48
721.96,13095.82
722.36,13057.55
722.77,13022.66
723.17,12993.02
723.57,12970.24
723.98,12955.63
724.38,12950.13
724.78,12954.28
725.19,12968.16
725.59,12991.46
725.99,13023.45
726.39,13063.05
726.80,13108.91
727.20,13159.50
727.60,13213.14
728.00,13268.13
728.41,13322.81
728.81,13375.59
729.21,13425.02
729.61,13469.78
730.02,13508.71
730.42,13540.79
730.82,13565.16
731.22,13581.15
731.63,13588.21
732.03,13586.01
732.43,13574.44
732.83,13553.65
733.23,13524.04
733.64,13486.36
734.04,13441.66
734.44,13391.32
734.84,13337.02
735.24,13280.70
735.64,13224.46
736.05,13170.54
736.45,13121.16
736.85,13078.39
737.25,13044.12
737.65,13019.83
738.05,13006.58
738.45,13004.88
738.86,13014.69
739.26,13035.35
739.66,13065.71
740.06,13104.10
740.46,13148.53
740.86,13196.74
741.26,13246.43
741.66,13295.30
742.06,13341.24
742.46,13382.42
742.87,13417.32
743.27,13444.78
743.67,13464.00
744.07,13474.50
744.47,13476.07
744.87,13468.77
745.27,13452.81
745.67,13428.56
746.07,13396.56
746.47,13357.45
746.87,13312.06
747.27,13261.36
747.67,13206.54
748.07,13148.99
748.47,13090.32
748.87,13032.34
749.27,12977.01
749.67,12926.39
750.07,12882.55
750.47,12847.48
750.87,12822.99
751.27,12810.57
751.67,12811.34
752.07,12825.92
752.47,12854.37
752.87,12896.21
753.27,12950.38
753.66,13015.33
754.06,13089.06
754.46,13169.26
754.86,13253.41
755.26,13338.89
755.66,13423.11
756.06,13503.57
756.46,13577.94
756.86,13644.15
757.26,13700.35
757.65,13745.01
758.05,13776.88
758.45,13795.00
758.85,13798.77
759.25,13787.85
759.65,13762.29
760.05,13722.40
760.44,13668.85
760.84,13602.58
761.24,13524.80
761.64,13436.98
762.04,13340.76
762.44,13237.97
762.83,13130.54
763.23,13020.46
763.63,12909.79
764.03,12800.54
764.43,12694.67
764.82,12594.04
765.22,12500.40
765.62,12415.26
766.02,12339.93
766.41,12275.44
766.81,12222.47
767.21,12181.33
767.61,12151.96
768.00,12133.84
768.40,12126.06
768.80,12127.29
769.20,12135.90
769.59,12149.96
769.99,12167.43
770.39,12186.18
770.79,12204.20
771.18,12219.60
771.58,12230.79
771.98,12236.44
772.37,12235.52
772.77,12227.30
773.17,12211.28
773.56,12187.15
773.96,12154.72
774.36,12113.89
774.75,12064.65
775.15,12007.09
775.55,11941.41
775.94,11868.00
776.34,11787.48
776.73,11700.76
777.13,11609.05
777.53,11513.87
777.92,11417.01
778.32,11320.45
778.72,11226.32
779.11,11136.73
779.51,11053.71
779.90,10979.07
780.30,10914.33
780.69,10860.60
781.09,10818.60
781.49,10788.56
781.88,10770.30
782.28,10763.24
782.67,10766.44
783.07,10778.71
783.46,10798.63
783.86,10824.69
784.25,10855.30
784.65,10888.85
785.04,10923.78
785.44,10958.57
785.83,10991.78
786.23,11022.07
786.62,11048.18
787.02,11069.00
787.41,11083.56
787.81,11091.01
788.20,11090.70
788.60,11082.12
788.99,11064.95
789.39,11039.03
789.78,11004.38
790.18,10961.17
790.57,10909.72
790.97,10850.52
791.36,10784.19
791.75,10711.50
792.15,10633.33
792.54,10550.73
792.94,10464.86
793.33,10377.01
793.72,10288.58
794.12,10201.10
794.51,10116.16
794.91,10035.40
795.30,9960.45
795.69,9892.84
796.09,9833.99
796.48,9785.05
796.87,9746.91
797.27,9720.08
797.66,9704.69
798.05,9700.51
798.45,9706.90
798.84,9722.92
799.23,9747.35
799.63,9778.76
800.02,9815.60
800.41,9856.23
800.81,9898.99
801.20,9942.25
801.59,9984.44
801.99,10024.09
802.38,10059.87
802.77,10090.60
803.16,10115.27
803.56,10133.10
803.95,10143.48
804.34,10146.02
804.73,10140.54
805.13,10127.00
805.52,10105.50
805.91,10076.26
806.30,10039.56
806.69,9995.71
807.09,9945.09
807.48,9888.07
807.87,9825.09
808.26,9756.67
808.66,9683.45
809.05,9606.19
809.44,9525.85
809.83,9443.55
810.22,9360.59
810.61,9278.43
811.01,9198.60
811.40,9122.67
811.79,9052.18
812.18,8988.55
812.57,8933.00
812.96,8886.54
813.35,8849.91
813.75,8823.52
814.14,8807.49
814.53,8801.62
814.92,8805.44
815.31,8818.18
815.70,8838.85
816.09,8866.26
816.48,8899.08
816.87,8935.84
817.26,8975.04
817.65,9015.15
818.04,9054.69
818.44,9092.25
818.83,9126.55
819.22,9156.44
819.61,9180.96
820.00,9199.34
820.39,9210.97
820.78,9215.46
821.17,9212.57
821.56,9202.24
821.95,9184.51
822.34,9159.54
822.73,9127.55
823.12,9088.82
823.51,9043.67
823.90,8992.41
824.29,8935.43
824.68,8873.11
825.07,8805.93
825.46,8734.42
825.85,8659.21
826.24,8581.09
826.62,8500.94
827.01,8419.80
827.40,8338.83
827.79,8259.27
828.18,8182.41
828.57,8109.56
828.96,8041.96
829.35,7980.74
829.74,7926.89
830.13,7881.19
830.52,7844.21
830.90,7816.29
831.29,7797.53
831.68,7787.81
832.07,7786.79
832.46,7793.93
832.85,7808.49
833.24,7829.63
833.62,7856.36
834.01,7887.60
834.40,7922.28
834.79,7959.28
835.18,7997.55
835.57,8036.11
835.95,8074.06
836.34,8110.59
836.73,8144.96
837.12,8176.52
837.51,8204.65
837.89,8228.73
838.28,8248.18
838.67,8262.45
839.06,8270.99
839.44,8273.34
839.83,8269.17
840.22,8258.25
840.61,8240.54
840.99,8216.15
841.38,8185.38
841.77,8148.65
842.16,8106.52
842.54,8059.59
842.93,8008.52
843.32,7953.96
843.70,7896.57
844.09,7837.01
844.48,7775.92
844.86,7713.98
845.25,7651.88
845.64,7590.38
846.02,7530.27
846.41,7472.41
846.80,7417.65
847.18,7366.87
847.57,7320.94
847.96,7280.62
848.34,7246.61
848.73,7219.42
849.12,7199.43
849.50,7186.78
849.89,7181.39
850.27,7182.98
850.66,7191.02
851.05,7204.80
851.43,7223.50
851.82,7246.17
852.20,7271.86
852.59,7299.67
852.97,7328.76
853.36,7358.45
853.75,7388.16
854.13,7417.46
854.52,7446.04
854.90,7473.62
855.29,7499.98
855.67,7524.85
856.06,7547.94
856.44,7568.90
856.83,7587.33
857.21,7602.81
857.60,7614.90
857.98,7623.17
858.37,7627.24
858.75,7626.82
859.14,7621.65
859.52,7611.58
859.91,7596.56
860.29,7576.62
860.68,7551.87
861.06,7522.56
861.44,7489.03
861.83,7451.73
862.21,7411.21
862.60,7368.16
862.98,7323.29
863.37,7277.42
863.75,7231.33
864.13,7185.83
864.52,7141.65
864.90,7099.45
865.29,7059.77
865.67,7023.06
866.05,6989.63
866.44,6959.70
866.82,6933.41
867.20,6910.82
867.59,6891.96
867.97,6876.80
868.35,6865.33
868.74,6857.51
869.12,6853.28
869.50,6852.56
869.89,6855.23
870.27,6861.11
870.65,6869.95
871.04,6881.44
871.42,6895.22
871.80,6910.86
872.19,6927.93
872.57,6946.00
872.95,6964.64
873.33,6983.47
873.72,7002.17
874.10,7020.46
874.48,7038.11
874.86,7054.92
875.25,7070.74
875.63,7085.49
876.01,7099.09
876.39,7111.55
876.77,7122.93
877.16,7133.34
877.54,7142.98
877.92,7152.04
878.30,7160.78
878.68,7169.42
879.07,7178.17
879.45,7187.19
879.83,7196.59
880.21,7206.44
880.59,7216.82
880.97,7227.79
881.36,7239.43
881.74,7251.88
882.12,7265.34
882.50,7280.05
882.88,7296.28
883.26,7314.32
883.64,7334.46
884.02,7356.92
884.41,7381.90
884.79,7409.50
885.17,7439.77
885.55,7472.67
885.93,7508.09
886.31,7545.87
886.69,7585.76
887.07,7627.49
887.45,7670.74
887.83,7715.14
888.21,7760.29
888.59,7805.76
888.97,7851.09
889.35,7895.80
889.73,7939.40
890.11,7981.36
890.49,8021.16
890.87,8058.27
891.25,8092.17
891.63,8122.37
892.01,8148.41
892.39,8169.86
892.77,8186.34
893.15,8197.54
893.53,8203.17
893.91,8202.99
894.29,8196.76
894.67,8184.28
895.05,8165.37
895.43,8139.84
895.81,8107.60
896.19,8068.60
896.57,8022.90
896.95,7970.68
897.32,7912.28
897.70,7848.16
898.08,7778.95
898.46,7705.38
898.84,7628.24
899.22,7548.38
899.60,7466.64
899.98,7383.81
900.35,7300.61
900.73,7217.68
901.11,7135.56
901.49,7054.69
901.87,6975.41
902.25,6897.99
902.63,6822.64
903.00,6749.48
903.38,6678.62
903.76,6610.12
904.14,6544.01
904.52,6480.31
904.89,6419.04
905.27,6360.22
905.65,6303.87
906.03,6250.02
906.40,6198.71
906.78,6149.97
907.16,6103.82
907.54,6060.25
907.91,6019.20
908.29,5980.58
908.67,5944.26
909.05,5910.05
909.42,5877.77
909.80,5847.23
910.18,5818.26
910.55,5790.73
910.93,5764.53
911.31,5739.61
911.68,5715.91
912.06,5693.41
912.44,5672.06
912.82,5651.77
913.19,5632.42
913.57,5613.85
913.94,5595.84
914.32,5578.14
914.70,5560.46
915.07,5542.49
915.45,5523.92
915.83,5504.45
916.20,5483.80
916.58,5461.75
916.95,5438.15
917.33,5412.96
917.71,5386.23
918.08,5358.09
918.46,5328.79
918.83,5298.64
919.21,5267.97
919.58,5237.12
919.96,5206.41
920.34,5176.09
920.71,5146.37
921.09,5117.37
921.46,5089.17
921.84,5061.79
922.21,5035.20
922.59,5009.36
922.96,4984.18
923.34,4959.56
923.71,4935.37
924.09,4911.48
924.46,4887.72
924.84,4863.94
925.21,4839.98
925.59,4815.74
925.96,4791.13
926.34,4766.17
926.71,4740.92
927.08,4715.53
927.46,4690.22
927.83,4665.26
928.21,4640.95
928.58,4617.59
928.96,4595.45
929.33,4574.74
929.70,4555.62
930.08,4538.14
930.45,4522.29
930.83,4507.98
931.20,4495.07
931.57,4483.37
931.95,4472.70
932.32,4462.89
932.69,4453.78
933.07,4445.24
933.44,4437.15
933.81,4429.41
934.19,4421.94
934.56,4414.65
934.93,4407.42
935.31,4400.14
935.68,4392.67
936.05,4384.85
936.43,4376.53
936.80,4367.53
937.17,4357.68
937.54,4346.82
937.92,4334.77
938.29,4321.39
938.66,4306.52
939.03,4290.06
939.41,4271.92
939.78,4252.06
940.15,4230.51
940.52,4207.36
940.90,4182.74
941.27,4156.86
941.64,4129.99
942.01,4102.40
942.38,4074.40
942.76,4046.28
943.13,4018.32
943.50,3990.75
943.87,3963.75
944.24,3937.47
944.61,3911.98
944.99,3887.32
945.36,3863.47
945.73,3840.38
946.10,3817.95
946.47,3796.06
946.84,3774.57
947.21,3753.33
947.59,3732.21
947.96,3711.09
948.33,3689.91
948.70,3668.65
949.07,3647.36
949.44,3626.13
949.81,3605.09
950.18,3584.44
950.55,3564.33
950.92,3544.93
951.29,3526.38
951.66,3508.75
952.03,3492.09
952.41,3476.37
952.78,3461.52
953.15,3447.44
953.52,3434.01
953.89,3421.11
954.26,3408.62
954.63,3396.45
955.00,3384.50
955.37,3372.72
955.74,3361.07
956.11,3349.53
956.48,3338.08
956.84,3326.70
957.21,3315.40
957.58,3304.17
957.95,3293.01
958.32,3281.91
958.69,3270.86
959.06,3259.86
959.43,3248.90
959.80,3237.95
960.17,3227.00
960.54,3216.00
960.91,3204.92
961.28,3193.72
961.64,3182.35
962.01,3170.75
962.38,3158.87
962.75,3146.64
963.12,3134.02
963.49,3120.96
963.86,3107.41
964.22,3093.36
964.59,3078.79
964.96,3063.72
965.33,3048.18
965.70,3032.21
966.07,3015.89
966.43,2999.30
966.80,2982.54
967.17,2965.73
967.54,2948.97
967.91,2932.34
968.27,2915.93
968.64,2899.77
969.01,2883.86
969.38,2868.17
969.74,2852.62
970.11,2837.13
970.48,2821.61
970.85,2806.00
971.21,2790.23
971.58,2774.29
971.95,2758.21
972.31,2742.01
972.68,2725.75
973.05,2709.48
973.42,2693.23
973.78,2677.02
974.15,2660.85
974.52,2644.72
974.88,2628.60
975.25,2612.52
975.62,2596.49
975.98,2580.56
976.35,2564.79
976.72,2549.26
977.08,2534.05
977.45,2519.22
977.81,2504.81
978.18,2490.82
978.55,2477.26
978.91,2464.08
979.28,2451.25
979.64,2438.74
980.01,2426.52
980.38,2414.59
980.74,2402.98
981.11,2391.70
981.47,2380.79
981.84,2370.28
982.20,2360.16
982.57,2350.41
982.93,2340.98
983.30,2331.77
983.66,2322.68
984.03,2313.61
984.39,2304.46
984.76,2295.14
985.12,2285.61
985.49,2275.85
985.85,2265.86
986.22,2255.69
986.58,2245.41
986.95,2235.09
987.31,2224.83
987.68,2214.70
988.04,2204.79
988.41,2195.16
988.77,2185.84
989.13,2176.87
989.50,2168.24
989.86,2159.93
990.23,2151.91
990.59,2144.14
990.96,2136.57
991.32,2129.16
991.68,2121.85
992.05,2114.60
992.41,2107.37
992.77,2100.10
993.14,2092.73
993.50,2085.20
993.86,2077.42
994.23,2069.32
994.59,2060.84
994.95,2051.92
995.32,2042.51
995.68,2032.58
996.04,2022.15
996.41,2011.22
996.77,1999.82
997.13,1988.01
997.50,1975.86
997.86,1963.44
998.22,1950.88
998.58,1938.27
998.95,1925.78
999.31,1913.52
999.67,1901.64
1000.03,1890.22
1000.40,1879.34
1000.76,1869.02
1001.12,1859.23
1001.48,1849.92
1001.84,1840.99
1002.21,1832.37
1002.57,1823.98
1002.93,1815.76
1003.29,1807.72
1003.65,1799.87
1004.02,1792.23
1004.38,1784.85
1004.74,1777.75
1005.10,1770.92
1005.46,1764.32
1005.82,1757.87
1006.19,1751.45
1006.55,1744.94
1006.91,1738.21
1007.27,1731.19
1007.63,1723.80
1007.99,1716.06
1008.35,1708.01
1008.71,1699.75
1009.07,1691.43
1009.43,1683.20
1009.80,1675.23
1010.16,1667.65
1010.52,1660.57
1010.88,1654.03
1011.24,1648.05
1011.60,1642.57
1011.96,1637.49
1012.32,1632.68
1012.68,1628.01
1013.04,1623.35
1013.40,1618.56
1013.76,1613.58
1014.12,1608.35
1014.48,1602.88
1014.84,1597.19
1015.20,1591.36
1015.56,1585.46
1015.92,1579.58
1016.28,1573.79
1016.64,1568.12
1017.00,1562.61
1017.36,1557.24
1017.72,1551.98
1018.07,1546.78
1018.43,1541.60
1018.79,1536.38
1019.15,1531.10
1019.51,1525.75
1019.87,1520.31
1020.23,1514.82
1020.59,1509.27
1020.95,1503.71
1021.31,1498.12
1021.66,1492.54
1022.02,1486.95
1022.38,1481.36
1022.74,1475.78
1023.10,1470.22
1023.46,1464.73
1023.81,1459.35
1024.17,1454.15
1024.53,1449.18
1024.89,1444.52
1025.25,1440.27
1025.60,1436.47
1025.96,1433.14
1026.32,1430.27
1026.68,1427.87
1027.04,1427.14
1027.39,1425.16
1027.75,1423.54
1028.11,1422.24
1028.47,1421.24
1028.82,1464.09
1029.18,1363.05
1029.54,1421.16
1029.90,1421.16
1030.25,1421.16
