wavelength,counts
188.65,653.34
189.10,653.34
189.56,653.34
190.01,653.34
190.47,653.34
190.92,678.92
191.37,689.66
191.83,701.93
192.28,715.58
192.74,730.42
193.19,746.22
193.64,762.72
194.10,780.29
194.55,798.89
195.01,818.44
195.46,838.86
195.91,860.02
196.37,881.75
196.82,903.81
197.27,925.96
197.73,947.91
198.18,969.38
198.63,990.06
199.09,1009.72
199.54,1028.12
199.99,1045.10
200.45,1060.54
200.90,1074.39
201.35,1086.66
201.81,1097.40
202.26,1106.71
202.71,1114.71
203.17,1121.52
203.62,1127.29
204.07,1132.13
204.53,1136.15
204.98,1139.42
205.43,1142.01
205.89,1143.93
206.34,1145.24
206.79,1145.93
207.25,1146.04
207.70,1145.61
208.15,1144.68
208.60,1143.33
209.06,1141.63
209.51,1139.68
209.96,1137.60
210.41,1135.51
210.87,1133.50
211.32,1131.68
211.77,1130.13
212.23,1128.87
212.68,1127.94
213.13,1127.29
213.58,1126.88
214.04,1126.60
214.49,1126.38
214.94,1126.08
215.39,1125.63
215.84,1124.96
216.30,1124.02
216.75,1122.82
217.20,1121.37
217.65,1119.73
218.11,1117.97
218.56,1116.15
219.01,1114.34
219.46,1112.61
219.91,1111.03
220.37,1109.63
220.82,1108.50
221.27,1107.69
221.72,1107.27
222.17,1107.31
222.63,1107.87
223.08,1108.98
223.53,1110.64
223.98,1112.82
224.43,1115.43
224.88,1118.34
225.34,1121.42
225.79,1124.51
226.24,1127.45
226.69,1130.13
227.14,1132.47
227.59,1134.43
228.04,1136.03
228.50,1137.31
228.95,1138.34
229.40,1139.18
229.85,1139.87
230.30,1140.44
230.75,1140.88
231.20,1141.15
231.66,1141.20
232.11,1140.98
232.56,1140.45
233.01,1139.61
233.46,1138.48
233.91,1137.13
234.36,1135.66
234.81,1134.17
235.26,1132.79
235.71,1131.62
236.17,1130.72
236.62,1130.15
237.07,1129.90
237.52,1129.94
237.97,1130.20
238.42,1130.59
238.87,1131.04
239.32,1131.45
239.77,1131.77
240.22,1131.95
240.67,1131.99
241.12,1131.90
241.57,1131.71
242.02,1131.46
242.47,1131.22
242.92,1131.03
243.37,1130.94
243.82,1130.98
244.27,1131.18
244.72,1131.54
245.18,1132.04
245.63,1132.65
246.08,1133.35
246.53,1134.08
246.98,1134.80
247.43,1135.48
247.88,1136.09
248.33,1136.60
248.78,1137.00
249.23,1137.28
249.68,1137.45
250.12,1137.52
250.57,1137.49
251.02,1137.39
251.47,1137.25
251.92,1137.13
252.37,1137.10
252.82,1137.23
253.27,1137.62
253.72,1138.35
254.17,1139.48
254.62,1141.03
255.07,1142.98
255.52,1145.23
255.97,1147.68
256.42,1150.15
256.87,1152.47
257.32,1154.50
257.77,1156.11
258.22,1157.24
258.66,1157.89
259.11,1158.12
259.56,1158.01
260.01,1157.67
260.46,1157.22
260.91,1156.72
261.36,1156.22
261.81,1155.73
262.26,1155.21
262.71,1154.62
263.15,1153.88
263.60,1152.95
264.05,1151.79
264.50,1150.38
264.95,1148.76
265.40,1146.97
265.85,1145.09
266.30,1143.21
266.74,1141.42
267.19,1139.80
267.64,1138.44
268.09,1137.40
268.54,1136.71
268.99,1136.39
269.43,1136.41
269.88,1136.75
270.33,1137.35
270.78,1138.13
271.23,1139.03
271.68,1139.98
272.12,1140.91
272.57,1141.79
273.02,1142.59
273.47,1143.30
273.92,1143.93
274.36,1144.50
274.81,1145.04
275.26,1145.57
275.71,1146.10
276.16,1146.65
276.60,1147.20
277.05,1147.75
277.50,1148.27
277.95,1148.74
278.39,1149.16
278.84,1149.50
279.29,1149.78
279.74,1150.01
280.19,1150.20
280.63,1150.36
281.08,1150.51
281.53,1150.64
281.98,1150.75
282.42,1150.82
282.87,1150.82
283.32,1150.73
283.76,1150.54
284.21,1150.25
284.66,1149.88
285.11,1149.46
285.55,1149.04
286.00,1148.64
286.45,1148.31
286.89,1148.06
287.34,1147.89
287.79,1147.78
288.23,1147.68
288.68,1147.54
289.13,1147.31
289.58,1146.92
290.02,1146.34
290.47,1145.54
290.92,1144.52
291.36,1143.31
291.81,1141.94
292.26,1140.51
292.70,1139.09
293.15,1137.79
293.60,1136.72
294.04,1135.96
294.49,1135.56
294.93,1135.56
295.38,1135.94
295.83,1136.63
296.27,1137.55
296.72,1138.59
297.17,1139.63
297.61,1140.59
298.06,1141.40
298.50,1142.05
298.95,1142.58
299.40,1143.06
299.84,1143.59
300.29,1144.30
300.73,1145.27
301.18,1146.59
301.63,1148.30
302.07,1150.38
302.52,1152.80
302.96,1155.47
303.41,1158.27
303.85,1161.11
304.30,1163.86
304.75,1166.43
305.19,1168.74
305.64,1170.73
306.08,1172.37
306.53,1173.64
306.97,1174.54
307.42,1175.08
307.86,1175.29
308.31,1175.20
308.75,1174.85
309.20,1174.31
309.65,1173.64
310.09,1172.91
310.54,1172.18
310.98,1171.50
311.43,1170.93
311.87,1170.47
312.32,1170.13
312.76,1169.91
313.21,1169.78
313.65,1169.72
314.10,1169.73
314.54,1169.80
314.99,1169.95
315.43,1170.19
315.87,1170.53
316.32,1170.98
316.76,1171.52
317.21,1172.10
317.65,1172.65
318.10,1173.10
318.54,1173.34
318.99,1173.31
319.43,1172.93
319.88,1172.16
320.32,1171.00
320.76,1169.49
321.21,1167.68
321.65,1165.66
322.10,1163.51
322.54,1161.32
322.99,1159.17
323.43,1157.11
323.87,1155.22
324.32,1153.54
324.76,1152.12
325.21,1151.01
325.65,1150.26
326.09,1149.92
326.54,1150.01
326.98,1150.56
327.42,1151.55
327.87,1152.92
328.31,1154.58
328.76,1156.41
329.20,1158.25
329.64,1159.95
330.09,1161.39
330.53,1162.46
330.97,1163.12
331.42,1163.36
331.86,1163.26
332.30,1162.90
332.75,1162.42
333.19,1161.94
333.63,1161.58
334.08,1161.44
334.52,1161.58
334.96,1162.02
335.41,1162.76
335.85,1163.79
336.29,1165.07
336.74,1166.58
337.18,1168.28
337.62,1170.16
338.06,1172.17
338.51,1174.26
338.95,1176.36
339.39,1178.38
339.84,1180.22
340.28,1181.77
340.72,1182.93
341.16,1183.65
341.61,1183.87
342.05,1183.62
342.49,1182.92
342.93,1181.86
343.38,1180.55
343.82,1179.09
344.26,1177.58
344.70,1176.14
345.15,1174.81
345.59,1173.67
346.03,1172.72
346.47,1171.96
346.92,1171.38
347.36,1170.94
347.80,1170.60
348.24,1170.32
348.68,1170.05
349.13,1169.76
349.57,1169.42
350.01,1169.02
350.45,1168.56
350.89,1168.07
351.34,1167.57
351.78,1167.12
352.22,1166.75
352.66,1166.50
353.10,1166.41
353.54,1166.49
353.99,1166.73
354.43,1167.14
354.87,1167.69
355.31,1168.36
355.75,1169.14
356.19,1170.02
356.63,1171.01
357.08,1172.09
357.52,1173.27
357.96,1174.54
358.40,1175.89
358.84,1177.31
359.28,1178.76
359.72,1180.21
360.16,1181.65
360.60,1183.06
361.05,1184.42
361.49,1185.75
361.93,1187.05
362.37,1188.33
362.81,1189.58
363.25,1190.81
363.69,1191.99
364.13,1193.10
364.57,1194.12
365.01,1195.00
365.45,1195.74
365.89,1196.32
366.33,1196.75
366.78,1197.04
367.22,1197.22
367.66,1197.33
368.10,1197.39
368.54,1197.43
368.98,1197.44
369.42,1197.43
369.86,1197.39
370.30,1197.28
370.74,1197.07
371.18,1196.75
371.62,1196.31
372.06,1195.73
372.50,1195.04
372.94,1194.25
373.38,1193.42
373.82,1192.58
374.26,1191.80
374.70,1191.13
375.14,1190.63
375.58,1190.34
376.02,1190.30
376.46,1190.55
376.90,1191.10
377.34,1191.94
377.78,1193.05
378.21,1194.40
378.65,1195.93
379.09,1197.61
379.53,1199.38
379.97,1201.19
380.41,1203.01
380.85,1204.81
381.29,1206.59
381.73,1208.34
382.17,1210.06
382.61,1211.75
383.05,1213.42
383.49,1215.06
383.93,1216.66
384.36,1218.23
384.80,1219.76
385.24,1221.24
385.68,1222.67
386.12,1224.06
386.56,1225.42
387.00,1226.75
387.44,1228.08
387.87,1229.41
388.31,1230.78
388.75,1232.20
389.19,1233.70
389.63,1235.30
390.07,1237.03
390.51,1238.90
390.94,1240.93
391.38,1243.12
391.82,1245.46
392.26,1247.92
392.70,1250.48
393.14,1253.13
393.57,1255.85
394.01,1258.64
394.45,1261.52
394.89,1264.51
395.33,1267.66
395.76,1271.00
396.20,1274.55
396.64,1278.33
397.08,1282.33
397.52,1286.51
397.95,1290.84
398.39,1295.24
398.83,1299.66
399.27,1304.04
399.70,1308.32
400.14,1312.48
400.58,1316.48
401.02,1320.33
401.45,1324.04
401.89,1327.62
402.33,1331.12
402.77,1334.56
403.20,1337.96
403.64,1341.37
404.08,1344.79
404.52,1348.25
404.95,1351.76
405.39,1355.31
405.83,1358.93
406.26,1362.61
406.70,1366.37
407.14,1370.22
407.58,1374.18
408.01,1378.28
408.45,1382.53
408.89,1386.97
409.32,1391.62
409.76,1396.51
410.20,1401.64
410.63,1407.01
411.07,1412.61
411.51,1418.39
411.94,1424.32
412.38,1430.33
412.82,1436.36
413.25,1442.35
413.69,1448.26
414.12,1454.06
414.56,1459.72
415.00,1465.27
415.43,1470.72
415.87,1476.12
416.31,1481.55
416.74,1487.06
417.18,1492.74
417.61,1498.66
418.05,1504.88
418.49,1511.43
418.92,1518.36
419.36,1525.65
419.79,1533.31
420.23,1541.30
420.67,1549.56
421.10,1558.05
421.54,1566.70
421.97,1575.45
422.41,1584.24
422.84,1593.01
423.28,1601.72
423.71,1610.33
424.15,1618.84
424.59,1627.21
425.02,1635.46
425.46,1643.57
425.89,1651.55
426.33,1659.39
426.76,1667.07
427.20,1674.58
427.63,1681.88
428.07,1688.95
428.50,1695.77
428.94,1702.34
429.37,1708.69
429.81,1714.87
430.24,1720.97
430.68,1727.11
431.11,1733.42
431.55,1740.02
431.98,1747.02
432.42,1754.52
432.85,1762.56
433.28,1771.13
433.72,1780.18
434.15,1789.66
434.59,1799.45
435.02,1809.48
435.46,1819.64
435.89,1829.87
436.33,1840.11
436.76,1850.30
437.19,1860.42
437.63,1870.40
438.06,1880.22
438.50,1889.82
438.93,1899.15
439.37,1908.18
439.80,1916.89
440.23,1925.28
440.67,1933.40
441.10,1941.31
441.53,1949.09
441.97,1956.84
442.40,1964.66
442.84,1972.61
443.27,1980.73
443.70,1989.04
444.14,1997.52
444.57,2006.11
445.00,2014.73
445.44,2023.32
445.87,2031.79
446.30,2040.10
446.74,2048.24
447.17,2056.22
447.60,2064.07
448.04,2071.86
448.47,2079.67
448.90,2087.56
449.34,2095.57
449.77,2103.74
450.20,2112.06
450.64,2120.54
451.07,2129.15
451.50,2137.92
451.93,2146.90
452.37,2156.17
452.80,2165.85
453.23,2176.09
453.67,2187.03
454.10,2198.80
454.53,2211.44
454.96,2224.96
455.40,2239.28
455.83,2254.24
456.26,2269.68
456.69,2285.42
457.13,2301.30
457.56,2317.24
457.99,2333.22
458.42,2349.30
458.86,2365.60
459.29,2382.25
459.72,2399.38
460.15,2417.06
460.58,2435.28
461.02,2453.95
461.45,2472.91
461.88,2491.93
462.31,2510.78
462.74,2529.25
463.18,2547.22
463.61,2564.63
464.04,2581.56
464.47,2598.17
464.90,2614.68
465.33,2631.39
465.77,2648.54
466.20,2666.36
466.63,2685.00
467.06,2704.52
467.49,2724.91
467.92,2746.07
468.35,2767.90
468.78,2790.29
469.22,2813.17
469.65,2836.53
470.08,2860.46
470.51,2885.12
470.94,2910.71
471.37,2937.47
471.80,2965.62
472.23,2995.33
472.66,3026.67
473.10,3059.61
473.53,3094.04
473.96,3129.74
474.39,3166.45
474.82,3203.92
475.25,3241.93
475.68,3280.35
476.11,3319.17
476.54,3358.47
476.97,3398.46
477.40,3439.37
477.83,3481.48
478.26,3524.99
478.69,3570.02
479.12,3616.57
479.55,3664.46
479.98,3713.39
480.41,3762.95
480.84,3812.65
481.27,3862.01
481.70,3910.63
482.13,3958.19
482.56,4004.59
482.99,4049.84
483.42,4094.15
483.85,4137.86
484.28,4181.35
484.71,4224.99
485.14,4269.07
485.57,4313.71
486.00,4358.82
486.43,4404.14
486.86,4449.18
487.29,4493.38
487.72,4536.15
488.15,4576.96
488.58,4615.52
489.01,4651.76
489.44,4685.93
489.87,4718.57
490.30,4750.46
490.72,4782.53
491.15,4815.73
491.58,4850.90
492.01,4888.69
492.44,4929.40
492.87,4972.99
493.30,5019.05
493.73,5066.84
494.16,5115.40
494.59,5163.64
495.01,5210.47
495.44,5254.95
495.87,5296.36
496.30,5334.32
496.73,5368.80
497.16,5400.10
497.59,5428.81
498.01,5455.70
498.44,5481.62
498.87,5507.35
499.30,5533.48
499.73,5560.37
500.16,5588.02
500.58,5616.16
501.01,5644.21
501.44,5671.46
501.87,5697.14
502.30,5720.56
502.72,5741.28
503.15,5759.12
503.58,5774.30
504.01,5787.39
504.44,5799.26
504.86,5811.01
505.29,5823.80
505.72,5838.77
506.15,5856.84
506.57,5878.63
507.00,5904.38
507.43,5933.91
507.86,5966.62
508.28,6001.61
508.71,6037.70
509.14,6073.67
509.57,6108.30
509.99,6140.63
510.42,6169.97
510.85,6196.09
511.27,6219.19
511.70,6239.89
512.13,6259.15
512.56,6278.15
512.98,6298.14
513.41,6320.22
513.84,6345.21
514.26,6373.53
514.69,6405.08
515.12,6439.27
515.54,6475.02
515.97,6510.93
516.40,6545.39
516.82,6576.79
517.25,6603.73
517.68,6625.19
518.10,6640.64
518.53,6650.19
518.95,6654.55
519.38,6654.96
519.81,6653.10
520.23,6650.87
520.66,6650.17
521.09,6652.69
521.51,6659.70
521.94,6671.94
522.36,6689.47
522.79,6711.74
523.22,6737.67
523.64,6765.76
524.07,6794.32
524.49,6821.67
524.92,6846.35
525.34,6867.24
525.77,6883.74
526.20,6895.75
526.62,6903.70
527.05,6908.45
527.47,6911.23
527.90,6913.43
528.32,6916.55
528.75,6921.94
529.17,6930.78
529.60,6943.87
530.02,6961.64
530.45,6984.03
530.87,7010.56
531.30,7040.34
531.72,7072.15
532.15,7104.60
532.57,7136.24
533.00,7165.71
533.42,7191.89
533.85,7214.03
534.27,7231.77
534.70,7245.25
535.12,7255.01
535.55,7262.01
535.97,7267.47
536.40,7272.73
536.82,7279.15
537.25,7287.94
537.67,7299.98
538.09,7315.79
538.52,7335.40
538.94,7358.37
539.37,7383.78
539.79,7410.35
540.22,7436.54
540.64,7460.71
541.06,7481.25
541.49,7496.80
541.91,7506.35
542.34,7509.35
542.76,7505.78
543.18,7496.21
543.61,7481.68
544.03,7463.70
544.46,7444.08
544.88,7424.80
545.30,7407.82
545.73,7394.93
546.15,7387.57
546.57,7386.71
547.00,7392.74
547.42,7405.48
547.84,7424.13
548.27,7447.40
548.69,7473.60
549.11,7500.81
549.54,7527.06
549.96,7550.54
550.38,7569.72
550.81,7583.54
551.23,7591.49
551.65,7593.64
552.07,7590.65
552.50,7583.69
552.92,7574.35
553.34,7564.49
553.77,7556.12
554.19,7551.16
554.61,7551.36
555.03,7558.08
555.46,7572.22
555.88,7594.13
556.30,7623.57
556.72,7659.74
557.15,7701.34
557.57,7746.66
557.99,7793.75
558.41,7840.56
558.84,7885.12
559.26,7925.68
559.68,7960.85
560.10,7989.71
560.52,8011.90
560.95,8027.57
561.37,8037.46
561.79,8042.73
562.21,8044.97
562.63,8045.97
563.06,8047.65
563.48,8051.83
563.90,8060.12
564.32,8073.76
564.74,8093.52
565.16,8119.61
565.58,8151.67
566.01,8188.83
566.43,8229.73
566.85,8272.66
567.27,8315.71
567.69,8356.86
568.11,8394.19
568.53,8425.97
568.96,8450.81
569.38,8467.70
569.80,8476.15
570.22,8476.15
570.64,8468.24
571.06,8453.41
571.48,8433.12
571.90,8409.13
572.32,8383.41
572.74,8358.01
573.16,8334.89
573.58,8315.76
574.01,8301.95
574.43,8294.31
574.85,8293.10
575.27,8297.96
575.69,8307.97
576.11,8321.70
576.53,8337.33
576.95,8352.81
577.37,8366.02
577.79,8374.99
578.21,8378.04
578.63,8373.93
579.05,8361.96
579.47,8342.04
579.89,8314.71
580.31,8281.05
580.73,8242.69
581.15,8201.64
581.57,8160.18
581.99,8120.72
582.41,8085.64
582.83,8057.14
583.25,8037.12
583.67,8027.02
584.09,8027.77
584.51,8039.72
584.93,8062.59
585.34,8095.55
585.76,8137.22
586.18,8185.81
586.60,8239.24
587.02,8295.29
587.44,8351.78
587.86,8406.69
588.28,8458.34
588.70,8505.45
589.12,8547.27
589.54,8583.57
589.95,8614.64
590.37,8641.25
590.79,8664.56
591.21,8686.06
591.63,8707.45
592.05,8730.52
592.47,8757.06
592.89,8788.73
593.30,8826.98
593.72,8872.96
594.14,8927.39
594.56,8990.52
594.98,9062.07
595.40,9141.17
595.81,9226.44
596.23,9315.95
596.65,9407.38
597.07,9498.14
597.49,9585.50
597.90,9666.80
598.32,9739.60
598.74,9801.86
599.16,9852.07
599.58,9889.32
599.99,9913.33
600.41,9924.50
600.83,9923.77
601.25,9912.62
601.66,9892.90
602.08,9866.71
602.50,9836.26
602.92,9803.78
603.33,9771.32
603.75,9740.71
604.17,9713.45
604.59,9690.61
605.00,9672.85
605.42,9660.37
605.84,9652.94
606.25,9649.91
606.67,9650.34
607.09,9653.00
607.51,9656.52
607.92,9659.48
608.34,9660.48
608.76,9658.24
609.17,9651.69
609.59,9640.03
610.01,9622.75
610.42,9599.71
610.84,9571.12
611.26,9537.52
611.67,9499.80
612.09,9459.11
612.51,9416.82
612.92,9374.44
613.34,9333.51
613.75,9295.51
614.17,9261.82
614.59,9233.60
615.00,9211.75
615.42,9196.92
615.83,9189.43
616.25,9189.36
616.67,9196.50
617.08,9210.43
617.50,9230.52
617.91,9255.94
618.33,9285.76
618.75,9318.91
619.16,9354.22
619.58,9390.50
619.99,9426.52
620.41,9461.11
620.82,9493.15
621.24,9521.67
621.65,9545.90
622.07,9565.30
622.48,9579.59
622.90,9588.85
623.31,9593.45
623.73,9594.11
624.14,9591.84
624.56,9587.89
624.97,9583.68
625.39,9580.74
625.80,9580.55
626.22,9584.46
626.63,9593.63
627.05,9608.88
627.46,9630.67
627.88,9659.09
628.29,9693.85
628.71,9734.29
629.12,9779.51
629.54,9828.39
629.95,9879.70
630.37,9932.17
630.78,9984.56
631.19,10035.71
631.61,10084.59
632.02,10130.28
632.44,10172.06
632.85,10209.35
633.26,10241.75
633.68,10269.05
634.09,10291.23
634.51,10308.49
634.92,10321.24
635.33,10330.09
635.75,10335.87
636.16,10339.55
636.57,10342.23
636.99,10345.07
637.40,10349.22
637.82,10355.74
638.23,10365.58
638.64,10379.44
639.06,10397.79
639.47,10420.79
639.88,10448.32
640.30,10479.95
640.71,10514.98
641.12,10552.54
641.53,10591.57
641.95,10630.97
642.36,10669.65
642.77,10706.57
643.19,10740.86
643.60,10771.80
644.01,10798.88
644.42,10821.77
644.84,10840.35
645.25,10854.64
645.66,10864.84
646.08,10871.27
646.49,10874.35
646.90,10874.61
647.31,10872.68
647.73,10869.22
648.14,10865.00
648.55,10860.78
648.96,10857.36
649.37,10855.51
649.79,10855.93
650.20,10859.24
650.61,10865.94
651.02,10876.40
651.43,10890.83
651.85,10909.29
652.26,10931.68
652.67,10957.80
653.08,10987.33
653.49,11019.85
653.90,11054.92
654.32,11092.06
654.73,11130.80
655.14,11170.68
655.55,11211.26
655.96,11252.14
656.37,11292.89
656.78,11333.11
657.20,11372.35
657.61,11410.13
658.02,11445.90
658.43,11479.10
658.84,11509.16
659.25,11535.55
659.66,11557.88
660.07,11575.89
660.48,11589.57
660.90,11599.15
661.31,11605.16
661.72,11608.35
662.13,11609.69
662.54,11610.27
662.95,11611.24
663.36,11613.71
663.77,11618.69
664.18,11627.01
664.59,11639.30
665.00,11655.94
665.41,11677.10
665.82,11702.70
666.23,11732.46
666.64,11765.92
667.05,11802.42
667.46,11841.21
667.87,11881.40
668.28,11922.07
668.69,11962.26
669.10,12001.06
669.51,12037.66
669.92,12071.38
670.33,12101.72
670.74,12128.39
671.15,12151.34
671.56,12170.71
671.97,12186.84
672.38,12200.19
672.79,12211.33
673.20,12220.89
673.61,12229.46
674.02,12237.61
674.42,12245.85
674.83,12254.61
675.24,12264.26
675.65,12275.10
676.06,12287.42
676.47,12301.52
676.88,12317.67
677.29,12336.19
677.70,12357.39
678.11,12381.56
678.51,12408.94
678.92,12439.67
679.33,12473.76
679.74,12511.03
680.15,12551.11
680.56,12593.43
680.97,12637.26
681.37,12681.71
681.78,12725.83
682.19,12768.65
682.60,12809.28
683.01,12846.92
683.42,12880.97
683.82,12911.03
684.23,12936.94
684.64,12958.72
685.05,12976.62
685.45,12991.01
685.86,13002.38
686.27,13011.28
686.68,13018.26
687.09,13023.84
687.49,13028.48
687.90,13032.57
688.31,13036.42
688.72,13040.31
689.12,13044.47
689.53,13049.16
689.94,13054.64
690.35,13061.22
690.75,13069.23
691.16,13079.03
691.57,13090.95
691.97,13105.27
692.38,13122.17
692.79,13141.69
693.20,13163.71
693.60,13187.94
694.01,13213.94
694.42,13241.14
694.82,13268.92
695.23,13296.59
695.64,13323.53
696.04,13349.15
696.45,13373.01
696.86,13394.76
697.26,13414.17
697.67,13431.11
698.07,13445.55
698.48,13457.45
698.89,13466.82
699.29,13473.63
699.70,13477.85
700.11,13479.41
700.51,13478.27
700.92,13474.41
701.32,13467.88
701.73,13458.85
702.14,13447.62
702.54,13434.63
702.95,13420.46
703.35,13405.81
703.76,13391.42
704.16,13378.10
704.57,13366.58
704.97,13357.54
705.38,13351.53
705.79,13348.97
706.19,13350.12
706.60,13355.09
707.00,13363.87
707.41,13376.33
707.81,13392.22
708.22,13411.22
708.62,13432.90
709.03,13456.76
709.43,13482.22
709.84,13508.67
710.24,13535.44
710.65,13561.89
711.05,13587.39
711.46,13611.42
711.86,13633.52
712.27,13653.38
712.67,13670.77
713.07,13685.63
713.48,13697.94
713.88,13707.79
714.29,13715.29
714.69,13720.60
715.10,13723.87
715.50,13725.24
715.90,13724.83
716.31,13722.78
716.71,13719.17
717.12,13714.15
717.52,13707.84
717.92,13700.46
718.33,13692.27
718.73,13683.67
719.14,13675.14
719.54,13667.27
719.94,13660.78
720.35,13656.40
720.75,13654.90
721.15,13656.96
721.56,13663.17
721.96,13673.91
722.36,13689.35
722.77,13709.40
723.17,13733.68
723.57,13761.60
723.98,13792.33
724.38,13824.89
724.78,13858.21
725.19,13891.17
725.59,13922.72
725.99,13951.89
726.39,13977.87
726.80,14000.05
727.20,14018.00
727.60,14031.54
728.00,14040.66
728.41,14045.52
728.81,14046.43
729.21,14043.77
729.61,14037.97
730.02,14029.46
730.42,14018.63
730.82,14005.82
731.22,13991.35
731.63,13975.45
732.03,13958.37
732.43,13940.37
732.83,13921.74
733.23,13902.84
733.64,13884.13
734.04,13866.10
734.44,13849.32
734.84,13834.37
735.24,13821.80
735.64,13812.11
736.05,13805.67
736.45,13802.76
736.85,13803.50
737.25,13807.89
737.65,13815.79
738.05,13827.00
738.45,13841.22
738.86,13858.12
739.26,13877.31
739.66,13898.37
740.06,13920.82
740.46,13944.17
740.86,13967.84
741.26,13991.25
741.66,14013.79
742.06,14034.89
742.46,14054.00
742.87,14070.69
743.27,14084.63
743.67,14095.64
744.07,14103.70
744.47,14108.90
744.87,14111.44
745.27,14111.59
745.67,14109.61
746.07,14105.77
746.47,14100.26
746.87,14093.25
747.27,14084.84
747.67,14075.17
748.07,14064.39
748.47,14052.79
748.87,14040.81
749.27,14029.07
749.67,14018.41
750.07,14009.80
750.47,14004.33
750.87,14003.09
751.27,14007.08
751.67,14017.09
752.07,14033.61
752.47,14056.78
752.87,14086.33
753.27,14121.62
753.66,14161.70
754.06,14205.36
754.46,14251.27
754.86,14298.05
755.26,14344.35
755.66,14388.98
756.06,14430.86
756.46,14469.10
756.86,14502.98
757.26,14531.90
757.65,14555.35
758.05,14572.94
758.45,14584.33
758.85,14589.23
759.25,14587.46
759.65,14578.90
760.05,14563.55
760.44,14541.50
760.84,14512.99
761.24,14478.36
761.64,14438.01
762.04,14392.43
762.44,14342.10
762.83,14287.48
763.23,14228.98
763.63,14166.93
764.03,14101.54
764.43,14032.99
764.82,13961.35
765.22,13886.72
765.62,13809.19
766.02,13728.95
766.41,13646.29
766.81,13561.63
767.21,13475.54
767.61,13388.76
768.00,13302.12
768.40,13216.55
768.80,13133.05
769.20,13052.61
769.59,12976.16
769.99,12904.57
770.39,12838.58
770.79,12778.73
771.18,12725.42
771.58,12678.81
771.98,12638.86
772.37,12605.32
772.77,12577.74
773.17,12555.46
773.56,12537.68
773.96,12523.46
774.36,12511.78
774.75,12501.59
775.15,12491.81
775.55,12481.47
775.94,12469.67
776.34,12455.66
776.73,12438.88
777.13,12418.96
777.53,12395.68
777.92,12369.03
778.32,12339.11
778.72,12306.09
779.11,12270.20
779.51,12231.67
779.90,12190.66
780.30,12147.31
780.69,12101.69
781.09,12053.84
781.49,12003.78
781.88,11951.54
782.28,11897.22
782.67,11840.98
783.07,11783.10
783.46,11723.92
783.86,11663.88
784.25,11603.48
784.65,11543.30
785.04,11483.89
785.44,11425.84
785.83,11369.70
786.23,11315.96
786.62,11265.07
787.02,11217.38
787.41,11173.18
787.81,11132.66
788.20,11095.91
788.60,11062.94
788.99,11033.72
789.39,11008.11
789.78,10985.96
790.18,10967.07
790.57,10951.23
790.97,10938.17
791.36,10927.62
791.75,10919.30
792.15,10912.86
792.54,10907.95
792.94,10904.19
793.33,10901.20
793.72,10898.58
794.12,10895.96
794.51,10893.01
794.91,10889.42
795.30,10884.94
795.69,10879.36
796.09,10872.50
796.48,10864.19
796.87,10854.25
797.27,10842.52
797.66,10828.80
798.05,10812.89
798.45,10794.60
798.84,10773.77
799.23,10750.26
799.63,10724.01
800.02,10695.02
800.41,10663.39
800.81,10629.27
801.20,10592.89
801.59,10554.51
801.99,10514.45
802.38,10473.02
802.77,10430.55
803.16,10387.39
803.56,10343.89
803.95,10300.39
804.34,10257.27
804.73,10214.92
805.13,10173.72
805.52,10134.06
805.91,10096.29
806.30,10060.77
806.69,10027.78
807.09,9997.57
807.48,9970.34
807.87,9946.22
808.26,9925.29
808.66,9907.60
809.05,9893.15
809.44,9881.90
809.83,9873.80
810.22,9868.80
810.61,9866.83
811.01,9867.83
811.40,9871.72
811.79,9878.39
812.18,9887.73
812.57,9899.54
812.96,9913.55
813.35,9929.40
813.75,9946.62
814.14,9964.64
814.53,9982.80
814.92,10000.38
815.31,10016.61
815.70,10030.75
816.09,10042.11
816.48,10050.08
816.87,10054.16
817.26,10053.98
817.65,10049.29
818.04,10039.98
818.44,10026.05
818.83,10007.59
819.22,9984.78
819.61,9957.87
820.00,9927.15
820.39,9892.95
820.78,9855.64
821.17,9815.56
821.56,9773.10
821.95,9728.63
822.34,9682.53
822.73,9635.19
823.12,9587.01
823.51,9538.41
823.90,9489.85
824.29,9441.80
824.68,9394.78
825.07,9349.29
825.46,9305.87
825.85,9265.01
826.24,9227.19
826.62,9192.80
827.01,9162.21
827.40,9135.67
827.79,9113.38
828.18,9095.40
828.57,9081.75
828.96,9072.30
829.35,9066.85
829.74,9065.12
830.13,9066.73
830.52,9071.28
830.90,9078.29
831.29,9087.32
831.68,9097.90
832.07,9109.61
832.46,9122.07
832.85,9134.94
833.24,9147.94
833.62,9160.82
834.01,9173.33
834.40,9185.27
834.79,9196.41
835.18,9206.53
835.57,9215.38
835.95,9222.67
836.34,9228.12
836.73,9231.40
837.12,9232.18
837.51,9230.13
837.89,9224.95
838.28,9216.41
838.67,9204.33
839.06,9188.64
839.44,9169.38
839.83,9146.69
840.22,9120.82
840.61,9092.10
840.99,9060.92
841.38,9027.69
841.77,8992.84
842.16,8956.82
842.54,8920.03
842.93,8882.87
843.32,8845.73
843.70,8808.93
844.09,8772.77
844.48,8737.48
844.86,8703.21
845.25,8670.07
845.64,8638.06
846.02,8607.17
846.41,8577.36
846.80,8548.62
847.18,8521.01
847.57,8494.69
847.96,8469.91
848.34,8447.01
848.73,8426.38
849.12,8408.40
849.50,8393.42
849.89,8381.67
850.27,8373.24
850.66,8368.12
851.05,8366.16
851.43,8367.13
851.82,8370.78
852.20,8376.89
852.59,8385.26
852.97,8395.75
853.36,8408.28
853.75,8422.77
854.13,8439.12
854.52,8457.15
854.90,8476.59
855.29,8497.03
855.67,8517.93
856.06,8538.67
856.44,8558.50
856.83,8576.70
857.21,8592.53
857.60,8605.32
857.98,8614.51
858.37,8619.67
858.75,8620.52
859.14,8616.94
859.52,8608.94
859.91,8596.68
860.29,8580.46
860.68,8560.63
861.06,8537.66
861.44,8512.01
861.83,8484.17
862.21,8454.63
862.60,8423.83
862.98,8392.15
863.37,8359.93
863.75,8327.47
864.13,8295.01
864.52,8262.75
864.90,8230.91
865.29,8199.67
865.67,8169.25
866.05,8139.88
866.44,8111.81
866.82,8085.31
867.20,8060.64
867.59,8038.10
867.97,8017.94
868.35,8000.40
868.74,7985.66
869.12,7973.84
869.50,7965.00
869.89,7959.08
870.27,7955.98
870.65,7955.49
871.04,7957.36
871.42,7961.31
871.80,7967.04
872.19,7974.29
872.57,7982.82
872.95,7992.45
873.33,8003.06
873.72,8014.60
874.10,8027.03
874.48,8040.38
874.86,8054.65
875.25,8069.90
875.63,8086.13
876.01,8103.38
876.39,8121.63
876.77,8140.87
877.16,8161.05
877.54,8182.10
877.92,8203.89
878.30,8226.27
878.68,8249.05
879.07,8272.04
879.45,8295.04
879.83,8317.88
880.21,8340.49
880.59,8362.86
880.97,8385.12
881.36,8407.49
881.74,8430.33
882.12,8454.04
882.50,8479.06
882.88,8505.83
883.26,8534.72
883.64,8565.99
884.02,8599.79
884.41,8636.13
884.79,8674.90
885.17,8715.89
885.55,8758.82
885.93,8803.36
886.31,8849.18
886.69,8895.92
887.07,8943.27
887.45,8990.91
887.83,9038.54
888.21,9085.84
888.59,9132.47
888.97,9178.10
889.35,9222.31
889.73,9264.71
890.11,9304.82
890.49,9342.20
890.87,9376.35
891.25,9406.81
891.63,9433.13
892.01,9454.87
892.39,9471.68
892.77,9483.25
893.15,9489.34
893.53,9489.77
893.91,9484.46
894.29,9473.35
894.67,9456.43
895.05,9433.74
895.43,9405.29
895.81,9371.14
896.19,9331.34
896.57,9285.99
896.95,9235.21
897.32,9179.22
897.70,9118.31
898.08,9052.87
898.46,8983.39
898.84,8910.44
899.22,8834.62
899.60,8756.57
899.98,8676.87
900.35,8596.07
900.73,8514.61
901.11,8432.83
901.49,8350.97
901.87,8269.22
902.25,8187.70
902.63,8106.54
903.00,8025.84
903.38,7945.79
903.76,7866.61
904.14,7788.54
904.52,7711.90
904.89,7636.99
905.27,7564.09
905.65,7493.46
906.03,7425.29
906.40,7359.70
906.78,7296.71
907.16,7236.29
907.54,7178.35
907.91,7122.75
908.29,7069.34
908.67,7017.97
909.05,6968.51
909.42,6920.87
909.80,6874.99
910.18,6830.84
910.55,6788.40
910.93,6747.67
911.31,6708.62
911.68,6671.19
912.06,6635.27
912.44,6600.68
912.82,6567.20
913.19,6534.56
913.57,6502.48
913.94,6470.66
914.32,6438.88
914.70,6406.94
915.07,6374.72
915.45,6342.21
915.83,6309.42
916.20,6276.44
916.58,6243.42
916.95,6210.49
917.33,6177.81
917.71,6145.52
918.08,6113.76
918.46,6082.65
918.83,6052.30
919.21,6022.77
919.58,5994.13
919.96,5966.38
920.34,5939.48
920.71,5913.36
921.09,5887.90
921.46,5862.94
921.84,5838.31
922.21,5813.86
922.59,5789.44
922.96,5764.92
923.34,5740.22
923.71,5715.27
924.09,5690.05
924.46,5664.55
924.84,5638.77
925.21,5612.72
925.59,5586.47
925.96,5560.09
926.34,5533.71
926.71,5507.51
927.08,5481.73
927.46,5456.62
927.83,5432.48
928.21,5409.55
928.58,5388.01
928.96,5367.96
929.33,5349.34
929.70,5331.98
930.08,5315.56
930.45,5299.64
930.83,5283.74
931.20,5267.36
931.57,5250.04
931.95,5231.40
932.32,5211.24
932.69,5189.47
933.07,5166.20
933.44,5141.65
933.81,5116.17
934.19,5090.16
934.56,5064.06
934.93,5038.25
935.31,5013.07
935.68,4988.74
936.05,4965.39
936.43,4943.02
936.80,4921.55
937.17,4900.80
937.54,4880.54
937.92,4860.52
938.29,4840.48
938.66,4820.15
939.03,4799.33
939.41,4777.84
939.78,4755.57
940.15,4732.46
940.52,4708.51
940.90,4683.77
941.27,4658.35
941.64,4632.39
942.01,4606.04
942.38,4579.47
942.76,4552.83
943.13,4526.26
943.50,4499.85
943.87,4473.65
944.24,4447.69
944.61,4421.94
944.99,4396.36
945.36,4370.91
945.73,4345.52
946.10,4320.16
946.47,4294.83
946.84,4269.54
947.21,4244.35
947.59,4219.38
947.96,4194.75
948.33,4170.61
948.70,4147.10
949.07,4124.37
949.44,4102.54
949.81,4081.69
950.18,4061.87
950.55,4043.10
950.92,4025.39
951.29,4008.70
951.66,3992.99
952.03,3978.20
952.41,3964.25
952.78,3951.02
953.15,3938.35
953.52,3926.05
953.89,3913.90
954.26,3901.64
954.63,3889.01
955.00,3875.78
955.37,3861.76
955.74,3846.83
956.11,3830.95
956.48,3814.17
956.84,3796.59
957.21,3778.40
957.58,3759.79
957.95,3740.97
958.32,3722.14
958.69,3703.45
959.06,3685.00
959.43,3666.86
959.80,3649.02
960.17,3631.47
960.54,3614.14
960.91,3596.95
961.28,3579.82
961.64,3562.66
962.01,3545.38
962.38,3527.89
962.75,3510.13
963.12,3492.02
963.49,3473.51
963.86,3454.55
964.22,3435.10
964.59,3415.15
964.96,3394.71
965.33,3373.79
965.70,3352.45
966.07,3330.79
966.43,3308.91
966.80,3286.96
967.17,3265.08
967.54,3243.45
967.91,3222.19
968.27,3201.44
968.64,3181.29
969.01,3161.78
969.38,3142.91
969.74,3124.65
970.11,3106.91
970.48,3089.61
970.85,3072.63
971.21,3055.88
971.58,3039.25
971.95,3022.67
972.31,3006.10
972.68,2989.49
973.05,2972.85
973.42,2956.17
973.78,2939.49
974.15,2922.82
974.52,2906.19
974.88,2889.62
975.25,2873.14
975.62,2856.77
975.98,2840.52
976.35,2824.43
976.72,2808.52
977.08,2792.82
977.45,2777.37
977.81,2762.19
978.18,2747.29
978.55,2732.64
978.91,2718.23
979.28,2703.99
979.64,2689.84
980.01,2675.72
980.38,2661.55
980.74,2647.29
981.11,2632.95
981.47,2618.58
981.84,2604.25
982.20,2590.10
982.57,2576.26
982.93,2562.87
983.30,2550.04
983.66,2537.84
984.03,2526.30
984.39,2515.41
984.76,2505.09
985.12,2495.25
985.49,2485.80
985.85,2476.61
986.22,2467.60
986.58,2458.70
986.95,2449.85
987.31,2440.99
987.68,2432.08
988.04,2423.04
988.41,2413.79
988.77,2404.22
989.13,2394.19
989.50,2383.57
989.86,2372.25
990.23,2360.14
990.59,2347.20
990.96,2333.43
991.32,2318.92
991.68,2303.76
992.05,2288.11
992.41,2272.11
992.77,2255.91
993.14,2239.63
993.50,2223.35
993.86,2207.13
994.23,2191.00
994.59,2174.98
994.95,2159.09
995.32,2143.36
995.68,2127.85
996.04,2112.65
996.41,2097.87
996.77,2083.61
997.13,2069.99
997.50,2057.11
997.86,2045.02
998.22,2033.74
998.58,2023.23
998.95,2013.42
999.31,2004.20
999.67,1995.40
1000.03,1986.89
1000.40,1978.51
1000.76,1970.13
1001.12,1961.67
1001.48,1953.10
1001.84,1944.43
1002.21,1935.73
1002.57,1927.10
1002.93,1918.68
1003.29,1910.59
1003.65,1902.94
1004.02,1895.84
1004.38,1889.32
1004.74,1883.37
1005.10,1877.94
1005.46,1872.92
1005.82,1868.17
1006.19,1863.56
1006.55,1858.91
1006.91,1854.09
1007.27,1848.96
1007.63,1843.45
1007.99,1837.49
1008.35,1831.05
1008.71,1824.14
1009.07,1816.78
1009.43,1809.00
1009.80,1800.85
1010.16,1792.37
1010.52,1783.61
1010.88,1774.65
1011.24,1765.55
1011.60,1756.39
1011.96,1747.28
1012.32,1738.31
1012.68,1729.59
1013.04,1721.21
1013.40,1713.23
1013.76,1705.67
1014.12,1698.52
1014.48,1691.75
1014.84,1685.25
1015.20,1678.94
1015.56,1672.71
1015.92,1666.45
1016.28,1660.09
1016.64,1653.60
1017.00,1646.97
1017.36,1640.22
1017.72,1633.42
1018.07,1626.65
1018.43,1619.98
1018.79,1613.48
1019.15,1607.18
1019.51,1601.10
1019.87,1595.20
1020.23,1589.41
1020.59,1583.64
1020.95,1577.79
1021.31,1571.72
1021.66,1565.35
1022.02,1558.58
1022.38,1551.37
1022.74,1543.73
1023.10,1535.69
1023.46,1527.35
1023.81,1518.83
1024.17,1510.28
1024.53,1501.88
1024.89,1493.80
1025.25,1486.27
1025.60,1479.48
1025.96,1473.58
1026.32,1468.64
1026.68,1464.68
1027.04,1463.19
1027.39,1462.21
1027.75,1461.05
1028.11,1459.58
1028.47,1457.65
1028.82,1509.52
1029.18,1443.89
1029.54,1426.21
1029.90,1426.21
1030.25,1426.21
