wavelength,counts
188.65,110.08
189.10,110.08
189.56,110.08
190.01,110.08
190.47,110.08
190.92,127.14
191.37,134.92
191.83,144.24
192.28,155.10
192.74,167.45
193.19,181.18
193.64,196.09
194.10,212.36
194.55,229.89
195.01,248.56
195.46,268.23
195.91,288.74
196.37,309.95
196.82,331.65
197.27,353.64
197.73,375.68
198.18,397.52
198.63,418.85
199.09,439.40
199.54,458.84
199.99,476.89
200.45,493.29
200.90,507.79
201.35,520.25
201.81,530.57
202.26,538.73
202.71,544.84
203.17,549.05
203.62,551.63
204.07,552.89
204.53,553.17
204.98,552.85
205.43,552.27
205.89,551.74
206.34,551.49
206.79,551.69
207.25,552.40
207.70,553.61
208.15,555.22
208.60,557.08
209.06,559.01
209.51,560.80
209.96,562.28
210.41,563.28
210.87,563.67
211.32,563.39
211.77,562.41
212.23,560.76
212.68,558.50
213.13,555.73
213.58,552.56
214.04,549.11
214.49,545.52
214.94,541.92
215.39,538.43
215.84,535.15
216.30,532.18
216.75,529.56
217.20,527.35
217.65,525.54
218.11,524.11
218.56,523.02
219.01,522.19
219.46,521.56
219.91,521.04
220.37,520.58
220.82,520.15
221.27,519.75
221.72,519.41
222.17,519.18
222.63,519.15
223.08,519.38
223.53,519.93
223.98,520.82
224.43,522.04
224.88,523.53
225.34,525.21
225.79,526.98
226.24,528.73
226.69,530.39
227.14,531.92
227.59,533.29
228.04,534.54
228.50,535.71
228.95,536.83
229.40,537.94
229.85,539.05
230.30,540.15
230.75,541.19
231.20,542.12
231.66,542.88
232.11,543.43
232.56,543.77
233.01,543.92
233.46,543.94
233.91,543.90
234.36,543.90
234.81,544.02
235.26,544.31
235.71,544.82
236.17,545.53
236.62,546.40
237.07,547.36
237.52,548.33
237.97,549.22
238.42,549.95
238.87,550.46
239.32,550.72
239.77,550.74
240.22,550.54
240.67,550.19
241.12,549.78
241.57,549.38
242.02,549.09
242.47,548.98
242.92,549.08
243.37,549.41
243.82,549.95
244.27,550.67
244.72,551.49
245.18,552.38
245.63,553.26
246.08,554.11
246.53,554.90
246.98,555.62
247.43,556.28
247.88,556.90
248.33,557.48
248.78,558.04
249.23,558.57
249.68,559.06
250.12,559.49
250.57,559.83
251.02,560.02
251.47,560.00
251.92,559.72
252.37,559.11
252.82,558.12
253.27,556.70
253.72,554.87
254.17,552.67
254.62,550.19
255.07,547.59
255.52,545.06
255.97,542.83
256.42,541.12
256.87,540.14
257.32,540.04
257.77,540.90
258.22,542.73
258.66,545.43
259.11,548.85
259.56,552.75
260.01,556.91
260.46,561.08
260.91,565.04
261.36,568.65
261.81,571.80
262.26,574.45
262.71,576.61
263.15,578.32
263.60,579.65
264.05,580.66
264.50,581.39
264.95,581.89
265.40,582.15
265.85,582.16
266.30,581.89
266.74,581.32
267.19,580.42
267.64,579.21
268.09,577.70
268.54,575.93
268.99,573.98
269.43,571.91
269.88,569.79
270.33,567.70
270.78,565.69
271.23,563.78
271.68,562.00
272.12,560.37
272.57,558.90
273.02,557.63
273.47,556.60
273.92,555.85
274.36,555.45
274.81,555.42
275.26,555.77
275.71,556.46
276.16,557.42
276.60,558.52
277.05,559.59
277.50,560.45
277.95,560.93
278.39,560.90
278.84,560.27
279.29,559.05
279.74,557.31
280.19,555.19
280.63,552.89
281.08,550.63
281.53,548.61
281.98,547.02
282.42,545.97
282.87,545.49
283.32,545.58
283.76,546.15
284.21,547.06
284.66,548.19
285.11,549.41
285.55,550.61
286.00,551.73
286.45,552.75
286.89,553.72
287.34,554.70
287.79,555.79
288.23,557.08
288.68,558.66
289.13,560.58
289.58,562.86
290.02,565.46
290.47,568.31
290.92,571.27
291.36,574.21
291.81,576.97
292.26,579.41
292.70,581.40
293.15,582.86
293.60,583.74
294.04,584.05
294.49,583.83
294.93,583.15
295.38,582.13
295.83,580.87
296.27,579.50
296.72,578.14
297.17,576.90
297.61,575.89
298.06,575.16
298.50,574.76
298.95,574.70
299.40,574.93
299.84,575.40
300.29,576.00
300.73,576.63
301.18,577.17
301.63,577.52
302.07,577.58
302.52,577.31
302.96,576.71
303.41,575.79
303.85,574.63
304.30,573.32
304.75,571.96
305.19,570.68
305.64,569.56
306.08,568.70
306.53,568.15
306.97,567.92
307.42,568.02
307.86,568.40
308.31,569.00
308.75,569.74
309.20,570.53
309.65,571.30
310.09,571.96
310.54,572.45
310.98,572.72
311.43,572.74
311.87,572.52
312.32,572.06
312.76,571.43
313.21,570.67
313.65,569.88
314.10,569.14
314.54,568.54
314.99,568.16
315.43,568.06
315.87,568.25
316.32,568.72
316.76,569.41
317.21,570.26
317.65,571.16
318.10,572.00
318.54,572.70
318.99,573.17
319.43,573.37
319.88,573.24
320.32,572.80
320.76,572.05
321.21,571.00
321.65,569.70
322.10,568.19
322.54,566.50
322.99,564.69
323.43,562.84
323.87,561.03
324.32,559.34
324.76,557.87
325.21,556.71
325.65,555.94
326.09,555.61
326.54,555.74
326.98,556.34
327.42,557.36
327.87,558.75
328.31,560.42
328.76,562.30
329.20,564.29
329.64,566.31
330.09,568.28
330.53,570.14
330.97,571.84
331.42,573.33
331.86,574.61
332.30,575.68
332.75,576.54
333.19,577.24
333.63,577.81
334.08,578.31
334.52,578.78
334.96,579.28
335.41,579.82
335.85,580.43
336.29,581.10
336.74,581.81
337.18,582.52
337.62,583.21
338.06,583.83
338.51,584.36
338.95,584.79
339.39,585.14
339.84,585.41
340.28,585.64
340.72,585.84
341.16,586.01
341.61,586.15
342.05,586.23
342.49,586.21
342.93,586.07
343.38,585.78
343.82,585.35
344.26,584.79
344.70,584.17
345.15,583.55
345.59,583.04
346.03,582.72
346.47,582.67
346.92,582.92
347.36,583.49
347.80,584.36
348.24,585.46
348.68,586.71
349.13,588.01
349.57,589.26
350.01,590.37
350.45,591.26
350.89,591.88
351.34,592.19
351.78,592.17
352.22,591.82
352.66,591.18
353.10,590.27
353.54,589.16
353.99,587.90
354.43,586.58
354.87,585.25
355.31,583.97
355.75,582.79
356.19,581.72
356.63,580.77
357.08,579.91
357.52,579.13
357.96,578.39
358.40,577.66
358.84,576.93
359.28,576.21
359.72,575.51
360.16,574.86
360.60,574.29
361.05,573.82
361.49,573.49
361.93,573.30
362.37,573.26
362.81,573.35
363.25,573.56
363.69,573.88
364.13,574.30
364.57,574.79
365.01,575.35
365.45,575.98
365.89,576.65
366.33,577.36
366.78,578.09
367.22,578.84
367.66,579.60
368.10,580.39
368.54,581.23
368.98,582.15
369.42,583.18
369.86,584.36
370.30,585.73
370.74,587.29
371.18,589.06
371.62,591.02
372.06,593.14
372.50,595.37
372.94,597.67
373.38,599.99
373.82,602.28
374.26,604.51
374.70,606.64
375.14,608.66
375.58,610.56
376.02,612.33
376.46,613.97
376.90,615.51
377.34,616.95
377.78,618.31
378.21,619.62
378.65,620.93
379.09,622.26
379.53,623.68
379.97,625.22
380.41,626.93
380.85,628.84
381.29,630.98
381.73,633.34
382.17,635.91
382.61,638.64
383.05,641.47
383.49,644.33
383.93,647.13
384.36,649.80
384.80,652.27
385.24,654.49
385.68,656.44
386.12,658.11
386.56,659.53
387.00,660.74
387.44,661.79
387.87,662.75
388.31,663.66
388.75,664.56
389.19,665.48
389.63,666.42
390.07,667.38
390.51,668.34
390.94,669.27
391.38,670.18
391.82,671.06
392.26,671.94
392.70,672.84
393.14,673.82
393.57,674.92
394.01,676.19
394.45,677.67
394.89,679.39
395.33,681.37
395.76,683.64
396.20,686.21
396.64,689.09
397.08,692.31
397.52,695.85
397.95,699.71
398.39,703.85
398.83,708.20
399.27,712.70
399.70,717.24
400.14,721.72
400.58,726.05
401.02,730.16
401.45,734.01
401.89,737.59
402.33,740.96
402.77,744.17
403.20,747.30
403.64,750.43
404.08,753.64
404.52,756.97
404.95,760.45
405.39,764.07
405.83,767.81
406.26,771.61
406.70,775.42
407.14,779.21
407.58,782.92
408.01,786.56
408.45,790.15
408.89,793.76
409.32,797.48
409.76,801.42
410.20,805.73
410.63,810.52
411.07,815.88
411.51,821.87
411.94,828.48
412.38,835.67
412.82,843.32
413.25,851.28
413.69,859.38
414.12,867.44
414.56,875.28
415.00,882.76
415.43,889.77
415.87,896.27
416.31,902.27
416.74,907.82
417.18,913.06
417.61,918.16
418.05,923.32
418.49,928.77
418.92,934.72
419.36,941.35
419.79,948.81
420.23,957.17
420.67,966.45
421.10,976.58
421.54,987.47
421.97,998.93
422.41,1010.75
422.84,1022.71
423.28,1034.54
423.71,1046.04
424.15,1056.98
424.59,1067.20
425.02,1076.61
425.46,1085.18
425.89,1092.94
426.33,1099.98
426.76,1106.45
427.20,1112.50
427.63,1118.30
428.07,1123.98
428.50,1129.66
428.94,1135.40
429.37,1141.26
429.81,1147.26
430.24,1153.45
430.68,1159.85
431.11,1166.52
431.55,1173.51
431.98,1180.86
432.42,1188.59
432.85,1196.68
433.28,1205.11
433.72,1213.77
434.15,1222.58
434.59,1231.45
435.02,1240.32
435.46,1249.16
435.89,1258.00
436.33,1266.92
436.76,1276.03
437.19,1285.44
437.63,1295.24
438.06,1305.51
438.50,1316.24
438.93,1327.38
439.37,1338.80
439.80,1350.36
440.23,1361.86
440.67,1373.09
441.10,1383.88
441.53,1394.06
441.97,1403.51
442.40,1412.14
442.84,1419.93
443.27,1426.88
443.70,1433.08
444.14,1438.64
444.57,1443.69
445.00,1448.44
445.44,1453.05
445.87,1457.73
446.30,1462.63
446.74,1467.90
447.17,1473.61
447.60,1479.81
448.04,1486.51
448.47,1493.68
448.90,1501.29
449.34,1509.31
449.77,1517.74
450.20,1526.60
450.64,1535.92
451.07,1545.76
451.50,1556.16
451.93,1567.14
452.37,1578.69
452.80,1590.75
453.23,1603.23
453.67,1616.02
454.10,1629.02
454.53,1642.16
454.96,1655.40
455.40,1668.77
455.83,1682.33
456.26,1696.19
456.69,1710.45
457.13,1725.17
457.56,1740.36
457.99,1755.97
458.42,1771.85
458.86,1787.81
459.29,1803.64
459.72,1819.14
460.15,1834.17
460.58,1848.68
461.02,1862.73
461.45,1876.47
461.88,1890.12
462.31,1903.93
462.74,1918.14
463.18,1932.92
463.61,1948.33
464.04,1964.35
464.47,1980.85
464.90,1997.63
465.33,2014.53
465.77,2031.37
466.20,2048.09
466.63,2064.74
467.06,2081.45
467.49,2098.44
467.92,2115.98
468.35,2134.31
468.78,2153.59
469.22,2173.87
469.65,2195.11
470.08,2217.14
470.51,2239.75
470.94,2262.72
471.37,2285.92
471.80,2309.32
472.23,2333.04
472.66,2357.37
473.10,2382.70
473.53,2409.44
473.96,2438.00
474.39,2468.64
474.82,2501.42
475.25,2536.20
475.68,2572.62
476.11,2610.13
476.54,2648.12
476.97,2686.01
477.40,2723.33
477.83,2759.83
478.26,2795.52
478.69,2830.65
479.12,2865.65
479.55,2901.05
479.98,2937.32
480.41,2974.80
480.84,3013.56
481.27,3053.40
481.70,3093.81
482.13,3134.14
482.56,3173.65
482.99,3211.70
483.42,3247.89
483.85,3282.15
484.28,3314.83
484.71,3346.60
485.14,3378.38
485.57,3411.19
486.00,3445.90
486.43,3483.07
486.86,3522.82
487.29,3564.75
487.72,3607.98
488.15,3651.27
488.58,3693.21
489.01,3732.48
489.44,3768.04
489.87,3799.36
490.30,3826.48
490.72,3850.05
491.15,3871.18
491.58,3891.28
492.01,3911.82
492.44,3934.02
492.87,3958.69
493.30,3986.06
493.73,4015.71
494.16,4046.71
494.59,4077.73
495.01,4107.34
495.44,4134.25
495.87,4157.57
496.30,4177.02
496.73,4193.01
497.16,4206.56
497.59,4219.21
498.01,4232.76
498.44,4248.93
498.87,4269.10
499.30,4294.03
499.73,4323.73
500.16,4357.39
500.58,4393.48
501.01,4429.97
501.44,4464.67
501.87,4495.50
502.30,4520.88
502.72,4539.97
503.15,4552.81
503.58,4560.34
504.01,4564.26
504.44,4566.76
504.86,4570.24
505.29,4576.85
505.72,4588.23
506.15,4605.21
506.57,4627.69
507.00,4654.64
507.43,4684.30
507.86,4714.41
508.28,4742.64
508.71,4766.93
509.14,4785.86
509.57,4798.88
509.99,4806.45
510.42,4809.97
510.85,4811.58
511.27,4813.84
511.70,4819.34
512.13,4830.29
512.56,4848.14
512.98,4873.35
513.41,4905.29
513.84,4942.33
514.26,4982.03
514.69,5021.54
515.12,5057.96
515.54,5088.83
515.97,5112.44
516.40,5128.14
516.82,5136.41
517.25,5138.81
517.68,5137.74
518.10,5136.16
518.53,5137.10
518.95,5143.31
519.38,5156.79
519.81,5178.58
520.23,5208.57
520.66,5245.54
521.09,5287.30
521.51,5331.00
521.94,5373.50
522.36,5411.81
522.79,5443.45
523.22,5466.80
523.64,5481.31
524.07,5487.49
524.49,5486.92
524.92,5481.92
525.34,5475.31
525.77,5469.96
526.20,5468.46
526.62,5472.73
527.05,5483.85
527.47,5501.87
527.90,5525.87
528.32,5554.08
528.75,5584.13
529.17,5613.41
529.60,5639.38
530.02,5659.93
530.45,5673.63
530.87,5679.95
531.30,5679.30
531.72,5672.98
532.15,5663.00
532.57,5651.87
533.00,5642.22
533.42,5636.53
533.85,5636.80
534.27,5644.31
534.70,5659.49
535.12,5681.89
535.55,5710.21
535.97,5742.54
536.40,5776.53
536.82,5809.72
537.25,5839.81
537.67,5864.91
538.09,5883.77
538.52,5895.87
538.94,5901.47
539.37,5901.58
539.79,5897.80
540.22,5892.12
540.64,5886.72
541.06,5883.71
541.49,5884.85
541.91,5891.42
542.34,5904.05
542.76,5922.65
543.18,5946.46
543.61,5974.11
544.03,6003.80
544.46,6033.48
544.88,6061.12
545.30,6084.89
545.73,6103.38
546.15,6115.78
546.57,6121.90
547.00,6122.24
547.42,6117.94
547.84,6110.63
548.27,6102.27
548.69,6094.95
549.11,6090.67
549.54,6091.09
549.96,6097.39
550.38,6110.09
550.81,6129.03
551.23,6153.36
551.65,6181.59
552.07,6211.78
552.50,6241.74
552.92,6269.21
553.34,6292.16
553.77,6308.96
554.19,6318.55
554.61,6320.61
555.03,6315.55
555.46,6304.53
555.88,6289.28
556.30,6272.04
556.72,6255.22
557.15,6241.24
557.57,6232.26
557.99,6229.94
558.41,6235.31
558.84,6248.62
559.26,6269.36
559.68,6296.30
560.10,6327.60
560.52,6361.08
560.95,6394.33
561.37,6425.03
561.79,6451.13
562.21,6471.07
562.63,6483.88
563.06,6489.30
563.48,6487.79
563.90,6480.51
564.32,6469.19
564.74,6456.04
565.16,6443.53
565.58,6434.17
566.01,6430.31
566.43,6433.89
566.85,6446.29
567.27,6468.17
567.69,6499.38
568.11,6538.97
568.53,6585.25
568.96,6635.93
569.38,6688.29
569.80,6739.41
570.22,6786.43
570.64,6826.77
571.06,6858.32
571.48,6879.64
571.90,6890.05
572.32,6889.70
572.74,6879.55
573.16,6861.29
573.58,6837.18
574.01,6809.93
574.43,6782.39
574.85,6757.41
575.27,6737.53
575.69,6724.80
576.11,6720.60
576.53,6725.54
576.95,6739.38
577.37,6761.10
577.79,6788.95
578.21,6820.65
578.63,6853.55
579.05,6884.92
579.47,6912.17
579.89,6933.04
580.31,6945.88
580.73,6949.72
581.15,6944.40
581.57,6930.55
581.99,6909.58
582.41,6883.52
582.83,6854.87
583.25,6826.37
583.67,6800.82
584.09,6780.78
584.51,6768.42
584.93,6765.30
585.34,6772.27
585.76,6789.43
586.18,6816.08
586.60,6850.88
587.02,6891.88
587.44,6936.75
587.86,6982.96
588.28,7027.99
588.70,7069.51
589.12,7105.62
589.54,7134.92
589.95,7156.70
590.37,7170.99
590.79,7178.55
591.21,7180.86
591.63,7179.98
592.05,7178.46
592.47,7179.11
592.89,7184.76
593.30,7198.06
593.72,7221.23
594.14,7255.89
594.56,7302.86
594.98,7362.15
595.40,7432.89
595.81,7513.41
596.23,7601.37
596.65,7693.86
597.07,7787.70
597.49,7879.58
597.90,7966.29
598.32,8044.98
598.74,8113.26
599.16,8169.42
599.58,8212.47
599.99,8242.25
600.41,8259.37
600.83,8265.22
601.25,8261.82
601.66,8251.69
602.08,8237.69
602.50,8222.77
602.92,8209.79
603.33,8201.28
603.75,8199.28
604.17,8205.18
604.59,8219.62
605.00,8242.47
605.42,8272.84
605.84,8309.21
606.25,8349.52
606.67,8391.37
607.09,8432.22
607.51,8469.56
607.92,8501.12
608.34,8525.02
608.76,8539.87
609.17,8544.91
609.59,8540.00
610.01,8525.67
610.42,8503.04
610.84,8473.77
611.26,8439.97
611.67,8404.02
612.09,8368.44
612.51,8335.71
612.92,8308.08
613.34,8287.49
613.75,8275.36
614.17,8272.54
614.59,8279.26
615.00,8295.12
615.42,8319.18
615.83,8349.98
616.25,8385.70
616.67,8424.31
617.08,8463.71
617.50,8501.85
617.91,8536.92
618.33,8567.41
618.75,8592.21
619.16,8610.65
619.58,8622.50
619.99,8627.98
620.41,8627.66
620.82,8622.47
621.24,8613.59
621.65,8602.39
622.07,8590.36
622.48,8579.04
622.90,8569.96
623.31,8564.57
623.73,8564.12
624.14,8569.65
624.56,8581.90
624.97,8601.23
625.39,8627.60
625.80,8660.52
626.22,8699.12
626.63,8742.16
627.05,8788.08
627.46,8835.19
627.88,8881.71
628.29,8925.93
628.71,8966.36
629.12,9001.78
629.54,9031.35
629.95,9054.64
630.37,9071.65
630.78,9082.78
631.19,9088.77
631.61,9090.68
632.02,9089.76
632.44,9087.39
632.85,9084.99
633.26,9083.94
633.68,9085.50
634.09,9090.76
634.51,9100.59
634.92,9115.62
635.33,9136.23
635.75,9162.50
636.16,9194.30
636.57,9231.19
636.99,9272.52
637.40,9317.41
637.82,9364.76
638.23,9413.30
638.64,9461.67
639.06,9508.40
639.47,9552.10
639.88,9591.46
640.30,9625.38
640.71,9653.08
641.12,9674.11
641.53,9688.46
641.95,9696.50
642.36,9698.99
642.77,9697.04
643.19,9691.97
643.60,9685.29
644.01,9678.52
644.42,9673.18
644.84,9670.63
645.25,9672.07
645.66,9678.42
646.08,9690.35
646.49,9708.21
646.90,9732.05
647.31,9761.60
647.73,9796.31
648.14,9835.40
648.55,9877.84
648.96,9922.51
649.37,9968.17
649.79,10013.59
650.20,10057.61
650.61,10099.16
651.02,10137.39
651.43,10171.61
651.85,10201.37
652.26,10226.42
652.67,10246.73
653.08,10262.47
653.49,10273.97
653.90,10281.74
654.32,10286.42
654.73,10288.79
655.14,10289.72
655.55,10290.17
655.96,10291.12
656.37,10293.57
656.78,10298.42
657.20,10306.48
657.61,10318.39
658.02,10334.59
658.43,10355.29
658.84,10380.45
659.25,10409.80
659.66,10442.85
660.07,10478.92
660.48,10517.21
660.90,10556.77
661.31,10596.65
661.72,10635.87
662.13,10673.51
662.54,10708.78
662.95,10740.98
663.36,10769.61
663.77,10794.36
664.18,10815.09
664.59,10831.88
665.00,10844.97
665.41,10854.77
665.82,10861.82
666.23,10866.81
666.64,10870.48
667.05,10873.65
667.46,10877.16
667.87,10881.83
668.28,10888.43
668.69,10897.62
669.10,10909.89
669.51,10925.59
669.92,10944.81
670.33,10967.47
670.74,10993.27
671.15,11021.75
671.56,11052.29
671.97,11084.21
672.38,11116.76
672.79,11149.22
673.20,11180.89
673.61,11211.17
674.02,11239.50
674.42,11265.47
674.83,11288.71
675.24,11308.98
675.65,11326.11
676.06,11340.02
676.47,11350.70
676.88,11358.23
677.29,11362.76
677.70,11364.51
678.11,11363.78
678.51,11360.94
678.92,11356.45
679.33,11350.78
679.74,11344.51
680.15,11338.21
680.56,11332.53
680.97,11328.07
681.37,11325.46
681.78,11325.27
682.19,11327.97
682.60,11333.96
683.01,11343.44
683.42,11356.47
683.82,11372.91
684.23,11392.47
684.64,11414.66
685.05,11438.91
685.45,11464.56
685.86,11490.91
686.27,11517.30
686.68,11543.11
687.09,11567.79
687.49,11590.83
687.90,11611.83
688.31,11630.42
688.72,11646.29
689.12,11659.20
689.53,11669.01
689.94,11675.67
690.35,11679.29
690.75,11680.14
691.16,11678.67
691.57,11675.49
691.97,11671.32
692.38,11666.96
692.79,11663.19
693.20,11660.73
693.60,11660.15
694.01,11661.85
694.42,11666.01
694.82,11672.66
695.23,11681.66
695.64,11692.80
696.04,11705.79
696.45,11720.37
696.86,11736.30
697.26,11753.40
697.67,11771.49
698.07,11790.43
698.48,11810.02
698.89,11830.02
699.29,11850.07
699.70,11869.75
700.11,11888.52
700.51,11905.81
700.92,11921.02
701.32,11933.62
701.73,11943.16
702.14,11949.34
702.54,11952.05
702.95,11951.37
703.35,11947.55
703.76,11941.06
704.16,11932.46
704.57,11922.44
704.97,11911.73
705.38,11901.07
705.79,11891.17
706.19,11882.65
706.60,11876.06
707.00,11871.80
707.41,11870.20
707.81,11871.44
708.22,11875.63
708.62,11882.79
709.03,11892.88
709.43,11905.77
709.84,11921.30
710.24,11939.20
710.65,11959.12
711.05,11980.60
711.46,12003.07
711.86,12025.83
712.27,12048.14
712.67,12069.22
713.07,12088.34
713.48,12104.86
713.88,12118.31
714.29,12128.42
714.69,12135.12
715.10,12138.53
715.50,12138.92
715.90,12136.66
716.31,12132.15
716.71,12125.79
717.12,12117.92
717.52,12108.84
717.92,12098.83
718.33,12088.16
718.73,12077.12
719.14,12066.04
719.54,12055.36
719.94,12045.54
720.35,12037.11
720.75,12030.59
721.15,12026.47
721.56,12025.15
721.96,12026.91
722.36,12031.90
722.77,12040.09
723.17,12051.29
723.57,12065.13
723.98,12081.13
724.38,12098.69
724.78,12117.13
725.19,12135.73
725.59,12153.75
725.99,12170.52
726.39,12185.40
726.80,12197.87
727.20,12207.50
727.60,12213.95
728.00,12217.01
728.41,12216.54
728.81,12212.49
729.21,12204.86
729.61,12193.73
730.02,12179.26
730.42,12161.66
730.82,12141.26
731.22,12118.47
731.63,12093.81
732.03,12067.88
732.43,12041.35
732.83,12014.93
733.23,11989.29
733.64,11965.05
734.04,11942.69
734.44,11922.58
734.84,11904.91
735.24,11889.73
735.64,11876.98
736.05,11866.52
736.45,11858.18
736.85,11851.81
737.25,11847.30
737.65,11844.60
738.05,11843.69
738.45,11844.57
738.86,11847.19
739.26,11851.43
739.66,11857.07
740.06,11863.74
740.46,11870.94
740.86,11878.09
741.26,11884.52
741.66,11889.56
742.06,11892.55
742.46,11892.94
742.87,11890.26
743.27,11884.17
743.67,11874.48
744.07,11861.09
744.47,11844.05
744.87,11823.49
745.27,11799.64
745.67,11772.87
746.07,11743.62
746.47,11712.48
746.87,11680.15
747.27,11647.46
747.67,11615.36
748.07,11584.87
748.47,11557.04
748.87,11532.92
749.27,11513.46
749.67,11499.47
750.07,11491.58
750.47,11490.16
750.87,11495.35
751.27,11507.00
751.67,11524.70
752.07,11547.81
752.47,11575.48
752.87,11606.70
753.27,11640.38
753.66,11675.33
754.06,11710.39
754.46,11744.43
754.86,11776.38
755.26,11805.30
755.66,11830.32
756.06,11850.71
756.46,11865.83
756.86,11875.15
757.26,11878.24
757.65,11874.78
758.05,11864.55
758.45,11847.48
758.85,11823.63
759.25,11793.22
759.65,11756.62
760.05,11714.33
760.44,11666.98
760.84,11615.26
761.24,11559.93
761.64,11501.72
762.04,11441.37
762.44,11379.57
762.83,11316.96
763.23,11254.12
763.63,11191.60
764.03,11129.91
764.43,11069.53
764.82,11010.90
765.22,10954.44
765.62,10900.56
766.02,10849.59
766.41,10801.86
766.81,10757.57
767.21,10716.91
767.61,10679.92
768.00,10646.55
768.40,10616.65
768.80,10589.95
769.20,10566.07
769.59,10544.53
769.99,10524.80
770.39,10506.31
770.79,10488.47
771.18,10470.73
771.58,10452.58
771.98,10433.57
772.37,10413.32
772.77,10391.51
773.17,10367.88
773.56,10342.21
773.96,10314.33
774.36,10284.08
774.75,10251.34
775.15,10216.01
775.55,10178.04
775.94,10137.40
776.34,10094.15
776.73,10048.41
777.13,10000.37
777.53,9950.34
777.92,9898.71
778.32,9846.00
778.72,9792.82
779.11,9739.88
779.51,9687.93
779.90,9637.78
780.30,9590.19
780.69,9545.86
781.09,9505.34
781.49,9469.04
781.88,9437.16
782.28,9409.70
782.67,9386.45
783.07,9367.05
783.46,9351.05
783.86,9337.90
784.25,9327.03
784.65,9317.93
785.04,9310.09
785.44,9303.09
785.83,9296.51
786.23,9290.01
786.62,9283.23
787.02,9275.80
787.41,9267.38
787.81,9257.58
788.20,9246.07
788.60,9232.52
788.99,9216.67
789.39,9198.33
789.78,9177.38
790.18,9153.78
790.57,9127.57
790.97,9098.83
791.36,9067.67
791.75,9034.24
792.15,8998.72
792.54,8961.27
792.94,8922.09
793.33,8881.40
793.72,8839.43
794.12,8796.41
794.51,8752.61
794.91,8708.25
795.30,8663.56
795.69,8618.76
796.09,8574.04
796.48,8529.60
796.87,8485.63
797.27,8442.37
797.66,8400.09
798.05,8359.12
798.45,8319.85
798.84,8282.70
799.23,8248.13
799.63,8216.61
800.02,8188.58
800.41,8164.38
800.81,8144.28
801.20,8128.41
801.59,8116.74
801.99,8109.07
802.38,8105.03
802.77,8104.09
803.16,8105.60
803.56,8108.81
803.95,8112.95
804.34,8117.20
804.73,8120.82
805.13,8123.15
805.52,8123.61
805.91,8121.73
806.30,8117.18
806.69,8109.67
807.09,8099.03
807.48,8085.15
807.87,8067.97
808.26,8047.48
808.66,8023.72
809.05,7996.80
809.44,7966.86
809.83,7934.10
810.22,7898.75
810.61,7861.08
811.01,7821.35
811.40,7779.83
811.79,7736.77
812.18,7692.43
812.57,7647.05
812.96,7600.91
813.35,7554.31
813.75,7507.62
814.14,7461.24
814.53,7415.63
814.92,7371.26
815.31,7328.62
815.70,7288.19
816.09,7250.39
816.48,7215.61
816.87,7184.13
817.26,7156.19
817.65,7131.94
818.04,7111.45
818.44,7094.74
818.83,7081.74
819.22,7072.30
819.61,7066.21
820.00,7063.17
820.39,7062.81
820.78,7064.68
821.17,7068.31
821.56,7073.19
821.95,7078.84
822.34,7084.76
822.73,7090.52
823.12,7095.74
823.51,7100.06
823.90,7103.17
824.29,7104.78
824.68,7104.59
825.07,7102.31
825.46,7097.63
825.85,7090.24
826.24,7079.82
826.62,7066.09
827.01,7048.81
827.40,7027.82
827.79,7003.05
828.18,6974.52
828.57,6942.39
828.96,6906.90
829.35,6868.42
829.74,6827.40
830.13,6784.37
830.52,6739.92
830.90,6694.68
831.29,6649.31
831.68,6604.46
832.07,6560.77
832.46,6518.83
832.85,6479.18
833.24,6442.26
833.62,6408.38
834.01,6377.75
834.40,6350.45
834.79,6326.43
835.18,6305.57
835.57,6287.66
835.95,6272.48
836.34,6259.83
836.73,6249.55
837.12,6241.54
837.51,6235.79
837.89,6232.35
838.28,6231.30
838.67,6232.70
839.06,6236.59
839.44,6242.90
839.83,6251.48
840.22,6262.04
840.61,6274.17
840.99,6287.38
841.38,6301.10
841.77,6314.74
842.16,6327.74
842.54,6339.57
842.93,6349.77
843.32,6357.98
843.70,6363.93
844.09,6367.40
844.48,6368.26
844.86,6366.41
845.25,6361.77
845.64,6354.26
846.02,6343.81
846.41,6330.33
846.80,6313.76
847.18,6294.08
847.57,6271.33
847.96,6245.63
848.34,6217.23
848.73,6186.52
849.12,6153.98
849.50,6120.22
849.89,6085.92
850.27,6051.77
850.66,6018.43
851.05,5986.52
851.43,5956.53
851.82,5928.83
852.20,5903.65
852.59,5881.10
852.97,5861.18
853.36,5843.80
853.75,5828.83
854.13,5816.08
854.52,5805.39
854.90,5796.57
855.29,5789.47
855.67,5783.94
856.06,5779.83
856.44,5777.05
856.83,5775.51
857.21,5775.17
857.60,5776.03
857.98,5778.13
858.37,5781.54
858.75,5786.35
859.14,5792.62
859.52,5800.41
859.91,5809.66
860.29,5820.26
860.68,5831.97
861.06,5844.48
861.44,5857.38
861.83,5870.23
862.21,5882.54
862.60,5893.86
862.98,5903.78
863.37,5911.94
863.75,5918.06
864.13,5921.94
864.52,5923.42
864.90,5922.44
865.29,5918.95
865.67,5912.96
866.05,5904.53
866.44,5893.72
866.82,5880.66
867.20,5865.50
867.59,5848.42
867.97,5829.64
868.35,5809.41
868.74,5788.01
869.12,5765.74
869.50,5742.91
869.89,5719.83
870.27,5696.79
870.65,5674.08
871.04,5651.96
871.42,5630.63
871.80,5610.30
872.19,5591.11
872.57,5573.18
872.95,5556.62
873.33,5541.50
873.72,5527.94
874.10,5516.05
874.48,5505.98
874.86,5497.89
875.25,5491.99
875.63,5488.48
876.01,5487.55
876.39,5489.35
876.77,5494.00
877.16,5501.50
877.54,5511.80
877.92,5524.79
878.30,5540.26
878.68,5557.98
879.07,5577.73
879.45,5599.26
879.83,5622.39
880.21,5646.98
880.59,5672.93
880.97,5700.22
881.36,5728.85
881.74,5758.88
882.12,5790.36
882.50,5823.35
882.88,5857.91
883.26,5894.00
883.64,5931.56
884.02,5970.44
884.41,6010.38
884.79,6051.04
885.17,6092.02
885.55,6132.86
885.93,6173.09
886.31,6212.27
886.69,6250.03
887.07,6286.08
887.45,6320.24
887.83,6352.42
888.21,6382.62
888.59,6410.87
888.97,6437.18
889.35,6461.56
889.73,6483.93
890.11,6504.16
890.49,6522.04
890.87,6537.31
891.25,6549.71
891.63,6558.97
892.01,6564.86
892.39,6567.19
892.77,6565.83
893.15,6560.69
893.53,6551.73
893.91,6538.93
894.29,6522.28
894.67,6501.79
895.05,6477.50
895.43,6449.50
895.81,6417.90
896.19,6382.91
896.57,6344.79
896.95,6303.89
897.32,6260.60
897.70,6215.35
898.08,6168.57
898.46,6120.66
898.84,6071.96
899.22,6022.76
899.60,5973.24
899.98,5923.56
900.35,5873.84
900.73,5824.18
901.11,5774.72
901.49,5725.62
901.87,5677.09
902.25,5629.34
902.63,5582.57
903.00,5536.96
903.38,5492.62
903.76,5449.60
904.14,5407.86
904.52,5367.31
904.89,5327.82
905.27,5289.24
905.65,5251.43
906.03,5214.25
906.40,5177.58
906.78,5141.29
907.16,5105.26
907.54,5069.36
907.91,5033.43
908.29,4997.31
908.67,4960.88
909.05,4924.03
909.42,4886.75
909.80,4849.11
910.18,4811.28
910.55,4773.51
910.93,4736.13
911.31,4699.48
911.68,4663.93
912.06,4629.73
912.44,4597.10
912.82,4566.10
913.19,4536.69
913.57,4508.70
913.94,4481.90
914.32,4455.97
914.70,4430.57
915.07,4405.41
915.45,4380.23
915.83,4354.85
916.20,4329.18
916.58,4303.22
916.95,4277.06
917.33,4250.88
917.71,4224.88
918.08,4199.33
918.46,4174.47
918.83,4150.55
919.21,4127.80
919.58,4106.39
919.96,4086.43
920.34,4067.98
920.71,4051.01
921.09,4035.41
921.46,4021.03
921.84,4007.62
922.21,3994.90
922.59,3982.54
922.96,3970.20
923.34,3957.55
923.71,3944.29
924.09,3930.18
924.46,3915.05
924.84,3898.84
925.21,3881.57
925.59,3863.37
925.96,3844.46
926.34,3825.12
926.71,3805.69
927.08,3786.51
927.46,3767.88
927.83,3750.06
928.21,3733.23
928.58,3717.48
928.96,3702.78
929.33,3688.99
929.70,3675.91
930.08,3663.24
930.45,3650.67
930.83,3637.84
931.20,3624.44
931.57,3610.19
931.95,3594.91
932.32,3578.50
932.69,3560.98
933.07,3542.47
933.44,3523.19
933.81,3503.44
934.19,3483.54
934.56,3463.82
934.93,3444.55
935.31,3425.97
935.68,3408.17
936.05,3391.19
936.43,3374.93
936.80,3359.23
937.17,3343.87
937.54,3328.60
937.92,3313.18
938.29,3297.40
938.66,3281.09
939.03,3264.17
939.41,3246.59
939.78,3228.38
940.15,3209.65
940.52,3190.51
940.90,3171.14
941.27,3151.74
941.64,3132.48
942.01,3113.58
942.38,3095.19
942.76,3077.46
943.13,3060.49
943.50,3044.30
943.87,3028.87
944.24,3014.12
944.61,2999.92
944.99,2986.10
945.36,2972.48
945.73,2958.89
946.10,2945.19
946.47,2931.29
946.84,2917.12
947.21,2902.70
947.59,2888.04
947.96,2873.22
948.33,2858.28
948.70,2843.27
949.07,2828.21
949.44,2813.11
949.81,2797.93
950.18,2782.62
950.55,2767.13
950.92,2751.40
951.29,2735.39
951.66,2719.11
952.03,2702.59
952.41,2685.91
952.78,2669.18
953.15,2652.57
953.52,2636.26
953.89,2620.45
954.26,2605.31
954.63,2591.00
955.00,2577.59
955.37,2565.10
955.74,2553.44
956.11,2542.48
956.48,2532.00
956.84,2521.74
957.21,2511.43
957.58,2500.79
957.95,2489.60
958.32,2477.67
958.69,2464.91
959.06,2451.27
959.43,2436.76
959.80,2421.47
960.17,2405.50
960.54,2389.00
960.91,2372.13
961.28,2355.05
961.64,2337.89
962.01,2320.80
962.38,2303.89
962.75,2287.22
963.12,2270.84
963.49,2254.73
963.86,2238.85
964.22,2223.12
964.59,2207.42
964.96,2191.63
965.33,2175.63
965.70,2159.33
966.07,2142.70
966.43,2125.76
966.80,2108.58
967.17,2091.33
967.54,2074.18
967.91,2057.35
968.27,2041.05
968.64,2025.47
969.01,2010.73
969.38,1996.90
969.74,1983.98
970.11,1971.93
970.48,1960.62
970.85,1949.92
971.21,1939.64
971.58,1929.62
971.95,1919.68
972.31,1909.65
972.68,1899.41
973.05,1888.84
973.42,1877.88
973.78,1866.51
974.15,1854.76
974.52,1842.74
974.88,1830.58
975.25,1818.45
975.62,1806.55
975.98,1795.08
976.35,1784.21
976.72,1774.03
977.08,1764.60
977.45,1755.87
977.81,1747.71
978.18,1739.92
978.55,1732.24
978.91,1724.37
979.28,1716.00
979.64,1706.87
980.01,1696.75
980.38,1685.51
980.74,1673.12
981.11,1659.63
981.47,1645.22
981.84,1630.15
982.20,1614.73
982.57,1599.29
982.93,1584.15
983.30,1569.60
983.66,1555.83
984.03,1542.97
984.39,1531.02
984.76,1519.94
985.12,1509.61
985.49,1499.85
985.85,1490.52
986.22,1481.46
986.58,1472.56
986.95,1463.76
987.31,1455.04
987.68,1446.44
988.04,1438.01
988.41,1429.83
988.77,1421.96
989.13,1414.47
989.50,1407.36
989.86,1400.62
990.23,1394.18
990.59,1387.95
990.96,1381.79
991.32,1375.55
991.68,1369.09
992.05,1362.25
992.41,1354.91
992.77,1347.01
993.14,1338.48
993.50,1329.34
993.86,1319.61
994.23,1309.38
994.59,1298.75
994.95,1287.84
995.32,1276.77
995.68,1265.70
996.04,1254.76
996.41,1244.07
996.77,1233.76
997.13,1223.90
997.50,1214.57
997.86,1205.78
998.22,1197.52
998.58,1189.76
998.95,1182.43
999.31,1175.45
999.67,1168.74
1000.03,1162.25
1000.40,1155.91
1000.76,1149.73
1001.12,1143.71
1001.48,1137.89
1001.84,1132.32
1002.21,1127.06
1002.57,1122.14
1002.93,1117.58
1003.29,1113.36
1003.65,1109.44
1004.02,1105.71
1004.38,1102.05
1004.74,1098.33
1005.10,1094.40
1005.46,1090.11
1005.82,1085.34
1006.19,1079.99
1006.55,1074.00
1006.91,1067.35
1007.27,1060.05
1007.63,1052.16
1007.99,1043.76
1008.35,1034.95
1008.71,1025.88
1009.07,1016.67
1009.43,1007.49
1009.80,998.48
1010.16,989.81
1010.52,981.59
1010.88,973.95
1011.24,966.98
1011.60,960.70
1011.96,955.12
1012.32,950.17
1012.68,945.74
1013.04,941.68
1013.40,937.82
1013.76,933.97
1014.12,929.96
1014.48,925.65
1014.84,920.97
1015.20,915.89
1015.56,910.43
1015.92,904.68
1016.28,898.76
1016.64,892.81
1017.00,886.98
1017.36,881.38
1017.72,876.14
1018.07,871.31
1018.43,866.93
1018.79,863.00
1019.15,859.47
1019.51,856.27
1019.87,853.29
1020.23,850.41
1020.59,847.49
1020.95,844.42
1021.31,841.06
1021.66,837.36
1022.02,833.25
1022.38,828.75
1022.74,823.90
1023.10,818.79
1023.46,813.54
1023.81,808.26
1024.17,803.09
1024.53,798.16
1024.89,793.56
1025.25,789.38
1025.60,785.69
1025.96,782.53
1026.32,779.92
1026.68,777.87
1027.04,776.52
1027.39,775.60
1027.75,775.10
1028.11,774.94
1028.47,775.02
1028.82,780.42
1029.18,772.80
1029.54,775.34
1029.90,775.34
1030.25,775.34
