wavelength,counts
188.65,23.05
189.10,23.05
189.56,23.05
190.01,23.05
190.47,23.05
190.92,58.31
191.37,72.83
191.83,89.19
192.28,107.09
192.74,126.16
193.19,145.98
193.64,166.10
194.10,186.97
194.55,208.45
195.01,230.42
195.46,252.74
195.91,275.28
196.37,297.88
196.82,320.34
197.27,342.47
197.73,364.08
198.18,384.99
198.63,405.05
199.09,424.12
199.54,442.14
199.99,459.04
200.45,474.80
200.90,489.43
201.35,502.93
201.81,515.31
202.26,526.56
202.71,536.67
203.17,545.62
203.62,553.38
204.07,559.93
204.53,565.27
204.98,569.44
205.43,572.47
205.89,574.48
206.34,575.57
206.79,575.89
207.25,575.59
207.70,574.81
208.15,573.71
208.60,572.40
209.06,571.01
209.51,569.64
209.96,568.36
210.41,567.26
210.87,566.36
211.32,565.70
211.77,565.28
212.23,565.08
212.68,565.03
213.13,565.05
213.58,565.04
214.04,564.88
214.49,564.44
214.94,563.62
215.39,562.34
215.84,560.55
216.30,558.25
216.75,555.49
217.20,552.36
217.65,549.00
218.11,545.58
218.56,542.26
219.01,539.23
219.46,536.65
219.91,534.66
220.37,533.33
220.82,532.72
221.27,532.83
221.72,533.61
222.17,534.96
222.63,536.77
223.08,538.89
223.53,541.18
223.98,543.47
224.43,545.63
224.88,547.54
225.34,549.10
225.79,550.26
226.24,550.99
226.69,551.28
227.14,551.18
227.59,550.73
228.04,549.98
228.50,549.00
228.95,547.85
229.40,546.56
229.85,545.19
230.30,543.79
230.75,542.42
231.20,541.13
231.66,540.01
232.11,539.15
232.56,538.63
233.01,538.55
233.46,538.97
233.91,539.93
234.36,541.39
234.81,543.31
235.26,545.59
235.71,548.08
236.17,550.63
236.62,553.08
237.07,555.29
237.52,557.16
237.97,558.60
238.42,559.59
238.87,560.12
239.32,560.19
239.77,559.84
240.22,559.10
240.67,557.98
241.12,556.51
241.57,554.71
242.02,552.61
242.47,550.26
242.92,547.73
243.37,545.13
243.82,542.57
244.27,540.18
244.72,538.08
245.18,536.39
245.63,535.19
246.08,534.50
246.53,534.33
246.98,534.63
247.43,535.32
247.88,536.31
248.33,537.48
248.78,538.75
249.23,540.01
249.68,541.21
250.12,542.31
250.57,543.30
251.02,544.18
251.47,545.00
251.92,545.80
252.37,546.63
252.82,547.54
253.27,548.59
253.72,549.81
254.17,551.20
254.62,552.77
255.07,554.49
255.52,556.32
255.97,558.20
256.42,560.09
256.87,561.93
257.32,563.64
257.77,565.18
258.22,566.47
258.66,567.46
259.11,568.07
259.56,568.25
260.01,567.93
260.46,567.07
260.91,565.66
261.36,563.70
261.81,561.26
262.26,558.42
262.71,555.32
263.15,552.12
263.60,549.00
264.05,546.14
264.50,543.71
264.95,541.84
265.40,540.64
265.85,540.15
266.30,540.37
266.74,541.25
267.19,542.70
267.64,544.63
268.09,546.89
268.54,549.37
268.99,551.95
269.43,554.52
269.88,556.99
270.33,559.28
270.78,561.32
271.23,563.07
271.68,564.50
272.12,565.59
272.57,566.35
273.02,566.81
273.47,567.00
273.92,566.99
274.36,566.83
274.81,566.59
275.26,566.31
275.71,565.99
276.16,565.64
276.60,565.21
277.05,564.66
277.50,563.92
277.95,562.96
278.39,561.76
278.84,560.35
279.29,558.80
279.74,557.23
280.19,555.79
280.63,554.62
281.08,553.87
281.53,553.65
281.98,554.02
282.42,554.99
282.87,556.50
283.32,558.46
283.76,560.71
284.21,563.08
284.66,565.42
285.11,567.58
285.55,569.45
286.00,570.96
286.45,572.09
286.89,572.87
287.34,573.37
287.79,573.68
288.23,573.88
288.68,574.07
289.13,574.30
289.58,574.61
290.02,575.01
290.47,575.49
290.92,576.01
291.36,576.56
291.81,577.11
292.26,577.66
292.70,578.22
293.15,578.80
293.60,579.43
294.04,580.13
294.49,580.91
294.93,581.75
295.38,582.62
295.83,583.48
296.27,584.28
296.72,584.97
297.17,585.51
297.61,585.87
298.06,586.04
298.50,586.00
298.95,585.76
299.40,585.33
299.84,584.70
300.29,583.89
300.73,582.89
301.18,581.71
301.63,580.36
302.07,578.86
302.52,577.23
302.96,575.53
303.41,573.79
303.85,572.07
304.30,570.44
304.75,568.95
305.19,567.65
305.64,566.58
306.08,565.76
306.53,565.18
306.97,564.82
307.42,564.62
307.86,564.53
308.31,564.49
308.75,564.43
309.20,564.33
309.65,564.16
310.09,563.94
310.54,563.70
310.98,563.49
311.43,563.38
311.87,563.42
312.32,563.64
312.76,564.04
313.21,564.61
313.65,565.26
314.10,565.93
314.54,566.51
314.99,566.91
315.43,567.06
315.87,566.92
316.32,566.49
316.76,565.83
317.21,564.99
317.65,564.10
318.10,563.26
318.54,562.58
318.99,562.17
319.43,562.10
319.88,562.38
320.32,563.03
320.76,563.99
321.21,565.19
321.65,566.56
322.10,568.00
322.54,569.43
322.99,570.79
323.43,572.05
323.87,573.22
324.32,574.30
324.76,575.35
325.21,576.43
325.65,577.56
326.09,578.80
326.54,580.15
326.98,581.61
327.42,583.13
327.87,584.67
328.31,586.17
328.76,587.55
329.20,588.75
329.64,589.74
330.09,590.47
330.53,590.95
330.97,591.16
331.42,591.14
331.86,590.93
332.30,590.55
332.75,590.06
333.19,589.46
333.63,588.78
334.08,588.00
334.52,587.10
334.96,586.05
335.41,584.78
335.85,583.28
336.29,581.53
336.74,579.54
337.18,577.37
337.62,575.09
338.06,572.82
338.51,570.69
338.95,568.83
339.39,567.34
339.84,566.31
340.28,565.79
340.72,565.77
341.16,566.21
341.61,567.04
342.05,568.14
342.49,569.40
342.93,570.71
343.38,571.95
343.82,573.05
344.26,573.97
344.70,574.68
345.15,575.21
345.59,575.61
346.03,575.93
346.47,576.25
346.92,576.62
347.36,577.08
347.80,577.65
348.24,578.32
348.68,579.04
349.13,579.75
349.57,580.36
350.01,580.81
350.45,581.02
350.89,580.98
351.34,580.67
351.78,580.17
352.22,579.55
352.66,578.96
353.10,578.52
353.54,578.40
353.99,578.71
354.43,579.53
354.87,580.91
355.31,582.82
355.75,585.16
356.19,587.81
356.63,590.61
357.08,593.40
357.52,596.02
357.96,598.36
358.40,600.33
358.84,601.89
359.28,603.07
359.72,603.89
360.16,604.41
360.60,604.70
361.05,604.83
361.49,604.84
361.93,604.79
362.37,604.68
362.81,604.54
363.25,604.36
363.69,604.14
364.13,603.87
364.57,603.54
365.01,603.14
365.45,602.67
365.89,602.14
366.33,601.53
366.78,600.88
367.22,600.17
367.66,599.43
368.10,598.65
368.54,597.85
368.98,597.02
369.42,596.17
369.86,595.34
370.30,594.55
370.74,593.84
371.18,593.29
371.62,592.96
372.06,592.93
372.50,593.26
372.94,594.01
373.38,595.20
373.82,596.83
374.26,598.88
374.70,601.29
375.14,603.99
375.58,606.92
376.02,609.99
376.46,613.12
376.90,616.25
377.34,619.32
377.78,622.28
378.21,625.10
378.65,627.73
379.09,630.13
379.53,632.28
379.97,634.13
380.41,635.67
380.85,636.89
381.29,637.77
381.73,638.35
382.17,638.67
382.61,638.81
383.05,638.86
383.49,638.94
383.93,639.18
384.36,639.72
384.80,640.66
385.24,642.11
385.68,644.14
386.12,646.75
386.56,649.95
387.00,653.66
387.44,657.80
387.87,662.24
388.31,666.84
388.75,671.46
389.19,675.97
389.63,680.23
390.07,684.18
390.51,687.77
390.94,691.00
391.38,693.91
391.82,696.58
392.26,699.10
392.70,701.60
393.14,704.18
393.57,706.93
394.01,709.93
394.45,713.21
394.89,716.76
395.33,720.53
395.76,724.47
396.20,728.46
396.64,732.39
397.08,736.15
397.52,739.63
397.95,742.76
398.39,745.46
398.83,747.73
399.27,749.58
399.70,751.05
400.14,752.23
400.58,753.24
401.02,754.20
401.45,755.26
401.89,756.55
402.33,758.20
402.77,760.31
403.20,762.97
403.64,766.19
404.08,769.99
404.52,774.32
404.95,779.11
405.39,784.26
405.83,789.68
406.26,795.23
406.70,800.83
407.14,806.39
407.58,811.82
408.01,817.11
408.45,822.24
408.89,827.21
409.32,832.07
409.76,836.87
410.20,841.64
410.63,846.44
411.07,851.31
411.51,856.24
411.94,861.27
412.38,866.37
412.82,871.54
413.25,876.76
413.69,882.03
414.12,887.34
414.56,892.72
415.00,898.18
415.43,903.76
415.87,909.48
416.31,915.36
416.74,921.42
417.18,927.68
417.61,934.11
418.05,940.70
418.49,947.44
418.92,954.30
419.36,961.25
419.79,968.29
420.23,975.41
420.67,982.62
421.10,989.95
421.54,997.44
421.97,1005.12
422.41,1013.03
422.84,1021.17
423.28,1029.54
423.71,1038.11
424.15,1046.80
424.59,1055.54
425.02,1064.24
425.46,1072.82
425.89,1081.21
426.33,1089.41
426.76,1097.43
427.20,1105.33
427.63,1113.21
428.07,1121.18
428.50,1129.37
428.94,1137.87
429.37,1146.78
429.81,1156.13
430.24,1165.95
430.68,1176.19
431.11,1186.78
431.55,1197.61
431.98,1208.53
432.42,1219.37
432.85,1229.95
433.28,1240.12
433.72,1249.71
434.15,1258.62
434.59,1266.80
435.02,1274.25
435.46,1281.04
435.89,1287.29
436.33,1293.16
436.76,1298.82
437.19,1304.43
437.63,1310.14
438.06,1316.06
438.50,1322.27
438.93,1328.82
439.37,1335.72
439.80,1343.00
440.23,1350.67
440.67,1358.74
441.10,1367.21
441.53,1376.07
441.97,1385.28
442.40,1394.78
442.84,1404.47
443.27,1414.19
443.70,1423.81
444.14,1433.17
444.57,1442.13
445.00,1450.59
445.44,1458.50
445.87,1465.88
446.30,1472.76
446.74,1479.24
447.17,1485.44
447.60,1491.48
448.04,1497.46
448.47,1503.50
448.90,1509.68
449.34,1516.08
449.77,1522.79
450.20,1529.88
450.64,1537.46
451.07,1545.63
451.50,1554.49
451.93,1564.13
452.37,1574.61
452.80,1585.96
453.23,1598.14
453.67,1611.11
454.10,1624.74
454.53,1638.92
454.96,1653.53
455.40,1668.46
455.83,1683.64
456.26,1699.03
456.69,1714.65
457.13,1730.51
457.56,1746.65
457.99,1763.07
458.42,1779.75
458.86,1796.65
459.29,1813.67
459.72,1830.70
460.15,1847.64
460.58,1864.38
461.02,1880.87
461.45,1897.06
461.88,1912.99
462.31,1928.66
462.74,1944.13
463.18,1959.41
463.61,1974.52
464.04,1989.45
464.47,2004.19
464.90,2018.75
465.33,2033.20
465.77,2047.67
466.20,2062.36
466.63,2077.58
467.06,2093.65
467.49,2110.89
467.92,2129.61
468.35,2149.97
468.78,2172.03
469.22,2195.69
469.65,2220.72
470.08,2246.81
470.51,2273.57
470.94,2300.68
471.37,2327.88
471.80,2355.03
472.23,2382.16
472.66,2409.41
473.10,2437.02
473.53,2465.28
473.96,2494.44
474.39,2524.67
474.82,2556.03
475.25,2588.41
475.68,2621.64
476.11,2655.46
476.54,2689.60
476.97,2723.90
477.40,2758.31
477.83,2792.93
478.26,2828.05
478.69,2864.03
479.12,2901.30
479.55,2940.20
479.98,2980.93
480.41,3023.44
480.84,3067.44
481.27,3112.36
481.70,3157.47
482.13,3201.95
482.56,3245.03
482.99,3286.14
483.42,3324.99
483.85,3361.62
484.28,3396.43
484.71,3430.06
485.14,3463.36
485.57,3497.14
486.00,3532.12
486.43,3568.74
486.86,3607.12
487.29,3647.03
487.72,3687.93
488.15,3729.08
488.58,3769.71
489.01,3809.11
489.44,3846.80
489.87,3882.65
490.30,3916.82
490.72,3949.83
491.15,3982.37
491.58,4015.23
492.01,4049.10
492.44,4084.42
492.87,4121.29
493.30,4159.40
493.73,4198.08
494.16,4236.33
494.59,4273.03
495.01,4307.09
495.44,4337.64
495.87,4364.22
496.30,4386.85
496.73,4406.07
497.16,4422.90
497.59,4438.69
498.01,4454.91
498.44,4472.96
498.87,4493.92
499.30,4518.39
499.73,4546.40
500.16,4577.38
500.58,4610.26
501.01,4643.63
501.44,4675.99
501.87,4705.97
502.30,4732.59
502.72,4755.42
503.15,4774.65
503.58,4791.10
504.01,4806.07
504.44,4821.18
504.86,4838.05
505.29,4858.08
505.72,4882.21
506.15,4910.71
506.57,4943.17
507.00,4978.50
507.43,5015.11
507.86,5051.12
508.28,5084.63
508.71,5114.08
509.14,5138.41
509.57,5157.27
509.99,5171.10
510.42,5181.01
510.85,5188.67
511.27,5196.05
511.70,5205.08
512.13,5217.42
512.56,5234.16
512.98,5255.67
513.41,5281.53
513.84,5310.65
514.26,5341.36
514.69,5371.72
515.12,5399.80
515.54,5423.96
515.97,5443.16
516.40,5457.05
516.82,5466.10
517.25,5471.53
517.68,5475.12
518.10,5479.04
518.53,5485.45
518.95,5496.31
519.38,5512.99
519.81,5536.16
520.23,5565.63
520.66,5600.40
521.09,5638.74
521.51,5678.45
521.94,5717.11
522.36,5752.40
522.79,5782.40
523.22,5805.82
523.64,5822.19
524.07,5831.88
524.49,5836.04
524.92,5836.49
525.34,5835.45
525.77,5835.24
526.20,5838.02
526.62,5845.51
527.05,5858.75
527.47,5878.00
527.90,5902.75
528.32,5931.73
528.75,5963.13
529.17,5994.86
529.60,6024.74
530.02,6050.89
530.45,6071.87
530.87,6086.92
531.30,6096.00
531.72,6099.84
532.15,6099.78
532.57,6097.64
533.00,6095.44
533.42,6095.21
533.85,6098.68
534.27,6107.06
534.70,6120.96
535.12,6140.24
535.55,6164.04
535.97,6190.93
536.40,6219.01
536.82,6246.18
537.25,6270.40
537.67,6289.91
538.09,6303.48
538.52,6310.56
538.94,6311.38
539.37,6306.94
539.79,6298.87
540.22,6289.33
540.64,6280.70
541.06,6275.33
541.49,6275.28
541.91,6282.02
542.34,6296.30
542.76,6318.04
543.18,6346.30
543.61,6379.40
544.03,6415.09
544.46,6450.83
544.88,6484.04
545.30,6512.43
545.73,6534.20
546.15,6548.33
546.57,6554.61
547.00,6553.71
547.42,6547.08
547.84,6536.78
548.27,6525.29
548.69,6515.18
549.11,6508.88
549.54,6508.38
549.96,6515.06
550.38,6529.53
550.81,6551.56
551.23,6580.14
551.65,6613.54
552.07,6649.53
552.50,6685.59
552.92,6719.13
553.34,6747.80
553.77,6769.70
554.19,6783.56
554.61,6788.91
555.03,6786.09
555.46,6776.23
555.88,6761.19
556.30,6743.30
556.72,6725.19
557.15,6709.50
557.57,6698.60
557.99,6694.37
558.41,6698.01
558.84,6709.90
559.26,6729.57
559.68,6755.78
560.10,6786.64
560.52,6819.77
560.95,6852.60
561.37,6882.62
561.79,6907.60
562.21,6925.86
562.63,6936.44
563.06,6939.15
563.48,6934.69
563.90,6924.54
564.32,6910.82
564.74,6896.17
565.16,6883.44
565.58,6875.45
566.01,6874.71
566.43,6883.20
566.85,6902.11
567.27,6931.72
567.69,6971.40
568.11,7019.54
568.53,7073.76
568.96,7131.08
569.38,7188.17
569.80,7241.64
570.22,7288.40
570.64,7325.85
571.06,7352.20
571.48,7366.57
571.90,7369.09
572.32,7360.85
572.74,7343.83
573.16,7320.65
573.58,7294.37
574.01,7268.16
574.43,7245.03
574.85,7227.56
575.27,7217.67
575.69,7216.49
576.11,7224.23
576.53,7240.26
576.95,7263.11
577.37,7290.71
577.79,7320.50
578.21,7349.73
578.63,7375.68
579.05,7395.87
579.47,7408.32
579.89,7411.70
580.31,7405.45
580.73,7389.83
581.15,7365.92
581.57,7335.54
581.99,7301.09
582.41,7265.40
582.83,7231.41
583.25,7202.02
583.67,7179.77
584.09,7166.68
584.51,7164.04
584.93,7172.38
585.34,7191.40
585.76,7220.01
586.18,7256.50
586.60,7298.66
587.02,7343.98
587.44,7389.84
587.86,7433.76
588.28,7473.52
588.70,7507.39
589.12,7534.15
589.54,7553.27
589.95,7564.89
590.37,7569.80
590.79,7569.45
591.21,7565.78
591.63,7561.16
592.05,7558.16
592.47,7559.41
592.89,7567.36
593.30,7584.10
593.72,7611.21
594.14,7649.58
594.56,7699.37
594.98,7759.93
595.40,7829.92
595.81,7907.33
596.23,7989.67
596.65,8074.10
597.07,8157.67
597.49,8237.51
597.90,8310.96
598.32,8375.82
598.74,8430.42
599.16,8473.74
599.58,8505.45
599.99,8525.94
600.41,8536.27
600.83,8538.10
601.25,8533.54
601.66,8525.03
602.08,8515.14
602.50,8506.34
602.92,8500.86
603.33,8500.50
603.75,8506.46
604.17,8519.30
604.59,8538.88
605.00,8564.38
605.42,8594.38
605.84,8627.04
606.25,8660.18
606.67,8691.56
607.09,8719.00
607.51,8740.57
607.92,8754.76
608.34,8760.55
608.76,8757.49
609.17,8745.71
609.59,8725.92
610.01,8699.31
610.42,8667.49
610.84,8632.38
611.26,8596.10
611.67,8560.80
612.09,8528.60
612.51,8501.40
612.92,8480.80
613.34,8468.00
613.75,8463.74
614.17,8468.21
614.59,8481.08
615.00,8501.52
615.42,8528.26
615.83,8559.67
616.25,8593.88
616.67,8628.95
617.08,8662.92
617.50,8694.02
617.91,8720.72
618.33,8741.85
618.75,8756.66
619.16,8764.83
619.58,8766.51
619.99,8762.29
620.41,8753.12
620.82,8740.29
621.24,8725.30
621.65,8709.82
622.07,8695.49
622.48,8683.92
622.90,8676.51
623.31,8674.40
623.73,8678.37
624.14,8688.85
624.56,8705.82
624.97,8728.92
625.39,8757.40
625.80,8790.26
626.22,8826.29
626.63,8864.16
627.05,8902.56
627.46,8940.20
627.88,8975.96
628.29,9008.85
628.71,9038.10
629.12,9063.14
629.54,9083.60
629.95,9099.34
630.37,9110.44
630.78,9117.18
631.19,9120.09
631.61,9119.91
632.02,9117.55
632.44,9114.10
632.85,9110.75
633.26,9108.71
633.68,9109.12
634.09,9113.00
634.51,9121.13
634.92,9134.05
635.33,9151.99
635.75,9174.89
636.16,9202.42
636.57,9234.02
636.99,9268.97
637.40,9306.41
637.82,9345.42
638.23,9385.08
638.64,9424.45
639.06,9462.63
639.47,9498.79
639.88,9532.19
640.30,9562.20
640.71,9588.33
641.12,9610.28
641.53,9627.95
641.95,9641.45
642.36,9651.15
642.77,9657.62
643.19,9661.65
643.60,9664.18
644.01,9666.26
644.42,9668.99
644.84,9673.45
645.25,9680.62
645.66,9691.34
646.08,9706.27
646.49,9725.79
646.90,9750.05
647.31,9778.90
647.73,9811.92
648.14,9848.48
648.55,9887.71
648.96,9928.59
649.37,9970.02
649.79,10010.83
650.20,10049.91
650.61,10086.24
651.02,10118.95
651.43,10147.37
651.85,10171.10
652.26,10189.98
652.67,10204.14
653.08,10213.94
653.49,10220.01
653.90,10223.15
654.32,10224.28
654.73,10224.39
655.14,10224.50
655.55,10225.56
655.96,10228.41
656.37,10233.78
656.78,10242.24
657.20,10254.17
657.61,10269.81
658.02,10289.22
658.43,10312.31
658.84,10338.86
659.25,10368.50
659.66,10400.78
660.07,10435.10
660.48,10470.83
660.90,10507.23
661.31,10543.56
661.72,10579.05
662.13,10612.98
662.54,10644.71
662.95,10673.71
663.36,10699.58
663.77,10722.10
664.18,10741.24
664.59,10757.15
665.00,10770.14
665.41,10780.67
665.82,10789.30
666.23,10796.64
666.64,10803.33
667.05,10809.98
667.46,10817.11
667.87,10825.19
668.28,10834.55
668.69,10845.46
669.10,10858.09
669.51,10872.53
669.92,10888.84
670.33,10907.02
670.74,10927.05
671.15,10948.85
671.56,10972.30
671.97,10997.23
672.38,11023.37
672.79,11050.37
673.20,11077.79
673.61,11105.12
674.02,11131.78
674.42,11157.14
674.83,11180.61
675.24,11201.60
675.65,11219.62
676.06,11234.27
676.47,11245.32
676.88,11252.69
677.29,11256.49
677.70,11256.99
678.11,11254.65
678.51,11250.07
678.92,11243.95
679.33,11237.07
679.74,11230.20
680.15,11224.06
680.56,11219.33
680.97,11216.55
681.37,11216.12
681.78,11218.33
682.19,11223.34
682.60,11231.23
683.01,11241.96
683.42,11255.45
683.82,11271.58
684.23,11290.14
684.64,11310.88
685.05,11333.47
685.45,11357.49
685.86,11382.42
686.27,11407.65
686.68,11432.51
687.09,11456.25
687.49,11478.17
687.90,11497.57
688.31,11513.88
688.72,11526.65
689.12,11535.59
689.53,11540.63
689.94,11541.85
690.35,11539.54
690.75,11534.12
691.16,11526.19
691.57,11516.42
691.97,11505.58
692.38,11494.48
692.79,11483.96
693.20,11474.84
693.60,11467.91
694.01,11463.88
694.42,11463.33
694.82,11466.73
695.23,11474.34
695.64,11486.23
696.04,11502.26
696.45,11522.07
696.86,11545.11
697.26,11570.66
697.67,11597.87
698.07,11625.85
698.48,11653.69
698.89,11680.54
699.29,11705.63
699.70,11728.34
700.11,11748.15
700.51,11764.72
700.92,11777.79
701.32,11787.22
701.73,11792.94
702.14,11794.99
702.54,11793.46
702.95,11788.54
703.35,11780.54
703.76,11769.92
704.16,11757.24
704.57,11743.23
704.97,11728.72
705.38,11714.62
705.79,11701.83
706.19,11691.24
706.60,11683.63
707.00,11679.61
707.41,11679.64
707.81,11683.96
708.22,11692.62
708.62,11705.50
709.03,11722.29
709.43,11742.58
709.84,11765.79
710.24,11791.29
710.65,11818.33
711.05,11846.12
711.46,11873.85
711.86,11900.69
712.27,11925.88
712.67,11948.71
713.07,11968.63
713.48,11985.22
713.88,11998.24
714.29,12007.58
714.69,12013.32
715.10,12015.61
715.50,12014.69
715.90,12010.80
716.31,12004.19
716.71,11995.10
717.12,11983.75
717.52,11970.35
717.92,11955.15
718.33,11938.44
718.73,11920.60
719.14,11902.08
719.54,11883.42
719.94,11865.23
720.35,11848.14
720.75,11832.78
721.15,11819.74
721.56,11809.53
721.96,11802.54
722.36,11799.06
722.77,11799.18
723.17,11802.86
723.57,11809.90
723.98,11819.93
724.38,11832.44
724.78,11846.78
725.19,11862.19
725.59,11877.85
725.99,11892.93
726.39,11906.61
726.80,11918.12
727.20,11926.84
727.60,11932.30
728.00,11934.20
728.41,11932.44
728.81,11927.11
729.21,11918.47
729.61,11906.88
730.02,11892.81
730.42,11876.77
730.82,11859.22
731.22,11840.59
731.63,11821.20
732.03,11801.31
732.43,11781.07
732.83,11760.56
733.23,11739.85
733.64,11719.02
734.04,11698.19
734.44,11677.58
734.84,11657.53
735.24,11638.45
735.64,11620.82
736.05,11605.19
736.45,11592.07
736.85,11581.89
737.25,11574.97
737.65,11571.48
738.05,11571.37
738.45,11574.42
738.86,11580.23
739.26,11588.20
739.66,11597.64
740.06,11607.77
740.46,11617.74
740.86,11626.73
741.26,11633.97
741.66,11638.77
742.06,11640.59
742.46,11639.00
742.87,11633.76
743.27,11624.76
743.67,11612.05
744.07,11595.77
744.47,11576.18
744.87,11553.56
745.27,11528.25
745.67,11500.62
746.07,11471.05
746.47,11439.93
746.87,11407.75
747.27,11375.01
747.67,11342.33
748.07,11310.44
748.47,11280.15
748.87,11252.37
749.27,11228.08
749.67,11208.27
750.07,11193.89
750.47,11185.78
750.87,11184.62
751.27,11190.82
751.67,11204.53
752.07,11225.56
752.47,11253.36
752.87,11287.07
753.27,11325.53
753.66,11367.33
754.06,11410.90
754.46,11454.59
754.86,11496.72
755.26,11535.72
755.66,11570.14
756.06,11598.75
756.46,11620.55
756.86,11634.79
757.26,11640.95
757.65,11638.77
758.05,11628.13
758.45,11609.14
758.85,11581.97
759.25,11546.96
759.65,11504.50
760.05,11455.08
760.44,11399.27
760.84,11337.76
761.24,11271.30
761.64,11200.78
762.04,11127.19
762.44,11051.60
762.83,10975.16
763.23,10899.03
763.63,10824.38
764.03,10752.33
764.43,10683.87
764.82,10619.88
765.22,10561.03
765.62,10507.82
766.02,10460.52
766.41,10419.21
766.81,10383.79
767.21,10353.96
767.61,10329.30
768.00,10309.28
768.40,10293.26
768.80,10280.53
769.20,10270.36
769.59,10261.98
769.99,10254.65
770.39,10247.68
770.79,10240.41
771.18,10232.30
771.58,10222.90
771.98,10211.84
772.37,10198.85
772.77,10183.72
773.17,10166.27
773.56,10146.34
773.96,10123.76
774.36,10098.33
774.75,10069.84
775.15,10038.05
775.55,10002.76
775.94,9963.80
776.34,9921.09
776.73,9874.68
777.13,9824.75
777.53,9771.63
777.92,9715.84
778.32,9658.00
778.72,9598.90
779.11,9539.36
779.51,9480.29
779.90,9422.58
780.30,9367.07
780.69,9314.54
781.09,9265.62
781.49,9220.86
781.88,9180.62
782.28,9145.14
782.67,9114.54
783.07,9088.84
783.46,9067.94
783.86,9051.71
784.25,9039.93
784.65,9032.35
785.04,9028.64
785.44,9028.39
785.83,9031.12
786.23,9036.27
786.62,9043.15
787.02,9051.03
787.41,9059.07
787.81,9066.45
788.20,9072.31
788.60,9075.86
788.99,9076.36
789.39,9073.20
789.78,9065.88
790.18,9054.07
790.57,9037.58
790.97,9016.34
791.36,8990.46
791.75,8960.12
792.15,8925.63
792.54,8887.34
792.94,8845.66
793.33,8801.01
793.72,8753.85
794.12,8704.62
794.51,8653.80
794.91,8601.86
795.30,8549.29
795.69,8496.61
796.09,8444.35
796.48,8393.05
796.87,8343.25
797.27,8295.49
797.66,8250.25
798.05,8207.99
798.45,8169.13
798.84,8134.02
799.23,8102.94
799.63,8076.10
800.02,8053.64
800.41,8035.59
800.81,8021.85
801.20,8012.20
801.59,8006.29
801.99,8003.62
802.38,8003.59
802.77,8005.51
803.16,8008.65
803.56,8012.29
803.95,8015.79
804.34,8018.58
804.73,8020.22
805.13,8020.39
805.52,8018.88
805.91,8015.53
806.30,8010.26
806.69,8002.94
807.09,7993.46
807.48,7981.64
807.87,7967.28
808.26,7950.14
808.66,7929.99
809.05,7906.62
809.44,7879.87
809.83,7849.67
810.22,7816.07
810.61,7779.21
811.01,7739.38
811.40,7696.95
811.79,7652.43
812.18,7606.37
812.57,7559.36
812.96,7512.02
813.35,7464.91
813.75,7418.57
814.14,7373.43
814.53,7329.85
814.92,7288.09
815.31,7248.35
815.70,7210.81
816.09,7175.60
816.48,7142.90
816.87,7112.91
817.26,7085.89
817.65,7062.14
818.04,7041.94
818.44,7025.59
818.83,7013.29
819.22,7005.11
819.61,7000.99
820.00,7000.66
820.39,7003.69
820.78,7009.45
821.17,7017.24
821.56,7026.25
821.95,7035.69
822.34,7044.83
822.73,7053.03
823.12,7059.81
823.51,7064.81
823.90,7067.82
824.29,7068.74
824.68,7067.51
825.07,7064.15
825.46,7058.64
825.85,7050.96
826.24,7041.03
826.62,7028.75
827.01,7014.01
827.40,6996.65
827.79,6976.56
828.18,6953.62
828.57,6927.80
828.96,6899.09
829.35,6867.60
829.74,6833.47
830.13,6796.99
830.52,6758.49
830.90,6718.42
831.29,6677.27
831.68,6635.61
832.07,6594.02
832.46,6553.06
832.85,6513.29
833.24,6475.17
833.62,6439.14
834.01,6405.51
834.40,6374.58
834.79,6346.54
835.18,6321.57
835.57,6299.82
835.95,6281.40
836.34,6266.40
836.73,6254.90
837.12,6246.91
837.51,6242.38
837.89,6241.18
838.28,6243.08
838.67,6247.74
839.06,6254.75
839.44,6263.60
839.83,6273.73
840.22,6284.57
840.61,6295.56
840.99,6306.18
841.38,6316.01
841.77,6324.71
842.16,6332.03
842.54,6337.86
842.93,6342.15
843.32,6344.93
843.70,6346.25
844.09,6346.15
844.48,6344.63
844.86,6341.62
845.25,6336.98
845.64,6330.49
846.02,6321.87
846.41,6310.84
846.80,6297.12
847.18,6280.53
847.57,6260.98
847.96,6238.51
848.34,6213.35
848.73,6185.83
849.12,6156.42
849.50,6125.68
849.89,6094.20
850.27,6062.59
850.66,6031.41
851.05,6001.18
851.43,5972.36
851.82,5945.30
852.20,5920.32
852.59,5897.64
852.97,5877.43
853.36,5859.79
853.75,5844.79
854.13,5832.43
854.52,5822.64
854.90,5815.33
855.29,5810.34
855.67,5807.47
856.06,5806.49
856.44,5807.17
856.83,5809.25
857.21,5812.49
857.60,5816.64
857.98,5821.47
858.37,5826.77
858.75,5832.33
859.14,5837.96
859.52,5843.50
859.91,5848.79
860.29,5853.75
860.68,5858.34
861.06,5862.57
861.44,5866.55
861.83,5870.42
862.21,5874.35
862.60,5878.54
862.98,5883.12
863.37,5888.19
863.75,5893.70
864.13,5899.53
864.52,5905.39
864.90,5910.90
865.29,5915.61
865.67,5919.00
866.05,5920.57
866.44,5919.88
866.82,5916.58
867.20,5910.48
867.59,5901.51
867.97,5889.80
868.35,5875.59
868.74,5859.27
869.12,5841.27
869.50,5822.06
869.89,5802.09
870.27,5781.73
870.65,5761.30
871.04,5740.99
871.42,5720.94
871.80,5701.22
872.19,5681.91
872.57,5663.06
872.95,5644.78
873.33,5627.21
873.72,5610.54
874.10,5595.03
874.48,5580.91
874.86,5568.44
875.25,5557.86
875.63,5549.35
876.01,5543.08
876.39,5539.14
876.77,5537.61
877.16,5538.50
877.54,5541.80
877.92,5547.48
878.30,5555.47
878.68,5565.70
879.07,5578.09
879.45,5592.61
879.83,5609.24
880.21,5628.00
880.59,5648.96
880.97,5672.23
881.36,5697.94
881.74,5726.18
882.12,5756.99
882.50,5790.33
882.88,5826.07
883.26,5863.93
883.64,5903.53
884.02,5944.43
884.41,5986.12
884.79,6028.08
885.17,6069.86
885.55,6111.02
885.93,6151.24
886.31,6190.29
886.69,6228.00
887.07,6264.30
887.45,6299.14
887.83,6332.52
888.21,6364.45
888.59,6394.92
888.97,6423.90
889.35,6451.34
889.73,6477.13
890.11,6501.10
890.49,6523.05
890.87,6542.70
891.25,6559.71
891.63,6573.73
892.01,6584.38
892.39,6591.30
892.77,6594.18
893.15,6592.76
893.53,6586.89
893.91,6576.48
894.29,6561.57
894.67,6542.29
895.05,6518.82
895.43,6491.43
895.81,6460.44
896.19,6426.19
896.57,6389.05
896.95,6349.38
897.32,6307.53
897.70,6263.82
898.08,6218.50
898.46,6171.83
898.84,6123.96
899.22,6075.03
899.60,6025.17
899.98,5974.47
900.35,5923.04
900.73,5871.01
901.11,5818.54
901.49,5765.81
901.87,5713.02
902.25,5660.39
902.63,5608.09
903.00,5556.31
903.38,5505.19
903.76,5454.85
904.14,5405.37
904.52,5356.81
904.89,5309.23
905.27,5262.65
905.65,5217.10
906.03,5172.61
906.40,5129.17
906.78,5086.77
907.16,5045.39
907.54,5005.01
907.91,4965.60
908.29,4927.16
908.67,4889.69
909.05,4853.24
909.42,4817.87
909.80,4783.63
910.18,4750.61
910.55,4718.84
910.93,4688.35
911.31,4659.11
911.68,4631.05
912.06,4604.06
912.44,4578.00
912.82,4552.71
913.19,4528.05
913.57,4503.86
913.94,4480.01
914.32,4456.37
914.70,4432.83
915.07,4409.28
915.45,4385.60
915.83,4361.69
916.20,4337.47
916.58,4312.87
916.95,4287.86
917.33,4262.48
917.71,4236.79
918.08,4210.95
918.46,4185.14
918.83,4159.60
919.21,4134.61
919.58,4110.44
919.96,4087.35
920.34,4065.58
920.71,4045.30
921.09,4026.61
921.46,4009.52
921.84,3993.98
922.21,3979.83
922.59,3966.84
922.96,3954.74
923.34,3943.19
923.71,3931.89
924.09,3920.52
924.46,3908.81
924.84,3896.55
925.21,3883.61
925.59,3869.91
925.96,3855.47
926.34,3840.33
926.71,3824.60
927.08,3808.39
927.46,3791.83
927.83,3775.07
928.21,3758.23
928.58,3741.42
928.96,3724.73
929.33,3708.24
929.70,3691.97
930.08,3675.90
930.45,3659.97
930.83,3644.05
931.20,3627.95
931.57,3611.47
931.95,3594.38
932.32,3576.47
932.69,3557.59
933.07,3537.66
933.44,3516.72
933.81,3494.92
934.19,3472.49
934.56,3449.75
934.93,3427.05
935.31,3404.73
935.68,3383.09
936.05,3362.34
936.43,3342.60
936.80,3323.88
937.17,3306.11
937.54,3289.14
937.92,3272.77
938.29,3256.80
938.66,3241.03
939.03,3225.28
939.41,3209.44
939.78,3193.42
940.15,3177.21
940.52,3160.82
940.90,3144.30
941.27,3127.73
941.64,3111.19
942.01,3094.78
942.38,3078.57
942.76,3062.60
943.13,3046.89
943.50,3031.42
943.87,3016.14
944.24,3000.97
944.61,2985.80
944.99,2970.54
945.36,2955.09
945.73,2939.39
946.10,2923.40
946.47,2907.13
946.84,2890.64
947.21,2874.00
947.59,2857.33
947.96,2840.73
948.33,2824.30
948.70,2808.13
949.07,2792.26
949.44,2776.70
949.81,2761.40
950.18,2746.30
950.55,2731.29
950.92,2716.27
951.29,2701.13
951.66,2685.81
952.03,2670.30
952.41,2654.62
952.78,2638.87
953.15,2623.20
953.52,2607.77
953.89,2592.74
954.26,2578.27
954.63,2564.42
955.00,2551.21
955.37,2538.56
955.74,2526.31
956.11,2514.26
956.48,2502.18
956.84,2489.84
957.21,2477.07
957.58,2463.75
957.95,2449.83
958.32,2435.38
958.69,2420.50
959.06,2405.38
959.43,2390.22
959.80,2375.22
960.17,2360.59
960.54,2346.49
960.91,2333.01
961.28,2320.21
961.64,2308.06
962.01,2296.47
962.38,2285.30
962.75,2274.34
963.12,2263.38
963.49,2252.17
963.86,2240.49
964.22,2228.15
964.59,2214.99
964.96,2200.94
965.33,2185.99
965.70,2170.20
966.07,2153.68
966.43,2136.59
966.80,2119.15
967.17,2101.56
967.54,2084.02
967.91,2066.72
968.27,2049.82
968.64,2033.42
969.01,2017.62
969.38,2002.43
969.74,1987.86
970.11,1973.88
970.48,1960.45
970.85,1947.49
971.21,1934.95
971.58,1922.76
971.95,1910.89
972.31,1899.29
972.68,1887.95
973.05,1876.86
973.42,1866.01
973.78,1855.40
974.15,1845.02
974.52,1834.84
974.88,1824.80
975.25,1814.85
975.62,1804.91
975.98,1794.90
976.35,1784.75
976.72,1774.40
977.08,1763.82
977.45,1753.01
977.81,1741.99
978.18,1730.78
978.55,1719.45
978.91,1708.02
979.28,1696.56
979.64,1685.07
980.01,1673.60
980.38,1662.15
980.74,1650.77
981.11,1639.47
981.47,1628.34
981.84,1617.43
982.20,1606.83
982.57,1596.65
982.93,1586.94
983.30,1577.76
983.66,1569.11
984.03,1560.95
984.39,1553.20
984.76,1545.71
985.12,1538.32
985.49,1530.85
985.85,1523.13
986.22,1515.01
986.58,1506.37
986.95,1497.15
987.31,1487.33
987.68,1476.96
988.04,1466.09
988.41,1454.87
988.77,1443.43
989.13,1431.92
989.50,1420.53
989.86,1409.40
990.23,1398.65
990.59,1388.36
990.96,1378.59
991.32,1369.30
991.68,1360.45
992.05,1351.92
992.41,1343.62
992.77,1335.40
993.14,1327.15
993.50,1318.79
993.86,1310.25
994.23,1301.50
994.59,1292.56
994.95,1283.43
995.32,1274.15
995.68,1264.78
996.04,1255.36
996.41,1245.94
996.77,1236.57
997.13,1227.33
997.50,1218.25
997.86,1209.41
998.22,1200.86
998.58,1192.62
998.95,1184.74
999.31,1177.23
999.67,1170.07
1000.03,1163.24
1000.40,1156.72
1000.76,1150.47
1001.12,1144.42
1001.48,1138.54
1001.84,1132.77
1002.21,1127.04
1002.57,1121.31
1002.93,1115.50
1003.29,1109.56
1003.65,1103.44
1004.02,1097.11
1004.38,1090.56
1004.74,1083.80
1005.10,1076.86
1005.46,1069.78
1005.82,1062.63
1006.19,1055.47
1006.55,1048.35
1006.91,1041.32
1007.27,1034.42
1007.63,1027.66
1007.99,1021.06
1008.35,1014.62
1008.71,1008.36
1009.07,1002.30
1009.43,996.44
1009.80,990.81
1010.16,985.40
1010.52,980.21
1010.88,975.19
1011.24,970.29
1011.60,965.42
1011.96,960.49
1012.32,955.40
1012.68,950.06
1013.04,944.40
1013.40,938.38
1013.76,932.02
1014.12,925.33
1014.48,918.39
1014.84,911.30
1015.20,904.17
1015.56,897.10
1015.92,890.22
1016.28,883.64
1016.64,877.43
1017.00,871.67
1017.36,866.41
1017.72,861.66
1018.07,857.44
1018.43,853.70
1018.79,850.41
1019.15,847.49
1019.51,844.87
1019.87,842.44
1020.23,840.11
1020.59,837.77
1020.95,835.31
1021.31,832.62
1021.66,829.63
1022.02,826.26
1022.38,822.46
1022.74,818.22
1023.10,813.55
1023.46,808.51
1023.81,803.19
1024.17,797.69
1024.53,792.12
1024.89,786.60
1025.25,781.24
1025.60,776.09
1025.96,771.17
1026.32,766.45
1026.68,761.87
1027.04,758.10
1027.39,753.70
1027.75,748.87
1028.11,743.74
1028.47,738.45
1028.82,760.10
1029.18,706.73
1029.54,711.82
1029.90,711.82
1030.25,711.82
