wavelength,counts
188.65,33.30
189.10,33.30
189.56,33.30
190.01,33.30
190.47,33.30
190.92,67.33
191.37,81.49
191.83,97.52
192.28,115.16
192.74,134.07
193.19,153.83
193.64,173.98
194.10,194.94
194.55,216.56
195.01,238.69
195.46,261.22
195.91,284.01
196.37,306.95
196.82,329.87
197.27,352.62
197.73,375.03
198.18,396.90
198.63,418.05
199.09,438.27
199.54,457.40
199.99,475.26
200.45,491.73
200.90,506.72
201.35,520.18
201.81,532.10
202.26,542.50
202.71,551.42
203.17,558.95
203.62,565.18
204.07,570.22
204.53,574.20
204.98,577.24
205.43,579.50
205.89,581.11
206.34,582.20
206.79,582.87
207.25,583.21
207.70,583.25
208.15,582.99
208.60,582.39
209.06,581.38
209.51,579.88
209.96,577.81
210.41,575.10
210.87,571.74
211.32,567.75
211.77,563.21
212.23,558.24
212.68,553.02
213.13,547.73
213.58,542.57
214.04,537.73
214.49,533.35
214.94,529.53
215.39,526.34
215.84,523.79
216.30,521.83
216.75,520.39
217.20,519.41
217.65,518.80
218.11,518.48
218.56,518.42
219.01,518.58
219.46,518.99
219.91,519.67
220.37,520.65
220.82,521.98
221.27,523.68
221.72,525.74
222.17,528.12
222.63,530.75
223.08,533.53
223.53,536.32
223.98,538.97
224.43,541.32
224.88,543.25
225.34,544.66
225.79,545.49
226.24,545.77
226.69,545.53
227.14,544.89
227.59,543.99
228.04,542.97
228.50,541.96
228.95,541.09
229.40,540.43
229.85,539.98
230.30,539.73
230.75,539.60
231.20,539.49
231.66,539.29
232.11,538.92
232.56,538.31
233.01,537.43
233.46,536.29
233.91,534.96
234.36,533.53
234.81,532.09
235.26,530.74
235.71,529.56
236.17,528.61
236.62,527.90
237.07,527.43
237.52,527.18
237.97,527.10
238.42,527.15
238.87,527.32
239.32,527.59
239.77,527.97
240.22,528.47
240.67,529.10
241.12,529.88
241.57,530.80
242.02,531.83
242.47,532.94
242.92,534.06
243.37,535.15
243.82,536.18
244.27,537.12
244.72,537.97
245.18,538.79
245.63,539.62
246.08,540.56
246.53,541.67
246.98,543.02
247.43,544.68
247.88,546.64
248.33,548.88
248.78,551.33
249.23,553.88
249.68,556.38
250.12,558.68
250.57,560.64
251.02,562.10
251.47,562.97
251.92,563.18
252.37,562.73
252.82,561.63
253.27,559.98
253.72,557.89
254.17,555.48
254.62,552.91
255.07,550.32
255.52,547.84
255.97,545.57
256.42,543.59
256.87,541.96
257.32,540.71
257.77,539.84
258.22,539.36
258.66,539.24
259.11,539.45
259.56,539.97
260.01,540.75
260.46,541.78
260.91,543.00
261.36,544.38
261.81,545.90
262.26,547.52
262.71,549.21
263.15,550.96
263.60,552.75
264.05,554.59
264.50,556.47
264.95,558.40
265.40,560.38
265.85,562.42
266.30,564.48
266.74,566.52
267.19,568.47
267.64,570.26
268.09,571.78
268.54,572.92
268.99,573.61
269.43,573.78
269.88,573.41
270.33,572.53
270.78,571.20
271.23,569.53
271.68,567.65
272.12,565.68
272.57,563.76
273.02,562.01
273.47,560.51
273.92,559.30
274.36,558.39
274.81,557.77
275.26,557.40
275.71,557.19
276.16,557.09
276.60,556.99
277.05,556.84
277.50,556.56
277.95,556.09
278.39,555.43
278.84,554.57
279.29,553.53
279.74,552.36
280.19,551.16
280.63,549.99
281.08,548.98
281.53,548.21
281.98,547.78
282.42,547.76
282.87,548.18
283.32,549.05
283.76,550.34
284.21,552.00
284.66,553.94
285.11,556.04
285.55,558.18
286.00,560.23
286.45,562.07
286.89,563.57
287.34,564.62
287.79,565.16
288.23,565.14
288.68,564.55
289.13,563.42
289.58,561.83
290.02,559.89
290.47,557.74
290.92,555.54
291.36,553.44
291.81,551.57
292.26,550.06
292.70,548.97
293.15,548.31
293.60,548.08
294.04,548.20
294.49,548.59
294.93,549.17
295.38,549.86
295.83,550.58
296.27,551.30
296.72,552.00
297.17,552.70
297.61,553.42
298.06,554.20
298.50,555.04
298.95,555.96
299.40,556.91
299.84,557.86
300.29,558.73
300.73,559.44
301.18,559.92
301.63,560.09
302.07,559.94
302.52,559.45
302.96,558.68
303.41,557.70
303.85,556.60
304.30,555.49
304.75,554.48
305.19,553.65
305.64,553.04
306.08,552.68
306.53,552.52
306.97,552.50
307.42,552.53
307.86,552.53
308.31,552.39
308.75,552.05
309.20,551.50
309.65,550.74
310.09,549.85
310.54,548.92
310.98,548.07
311.43,547.44
311.87,547.12
312.32,547.22
312.76,547.77
313.21,548.77
313.65,550.17
314.10,551.89
314.54,553.80
314.99,555.78
315.43,557.68
315.87,559.37
316.32,560.77
316.76,561.81
317.21,562.48
317.65,562.80
318.10,562.85
318.54,562.71
318.99,562.50
319.43,562.33
319.88,562.28
320.32,562.42
320.76,562.77
321.21,563.31
321.65,564.01
322.10,564.81
322.54,565.67
322.99,566.55
323.43,567.43
323.87,568.33
324.32,569.30
324.76,570.41
325.21,571.70
325.65,573.25
326.09,575.06
326.54,577.12
326.98,579.37
327.42,581.70
327.87,583.97
328.31,586.03
328.76,587.71
329.20,588.89
329.64,589.45
330.09,589.34
330.53,588.55
330.97,587.13
331.42,585.19
331.86,582.87
332.30,580.34
332.75,577.79
333.19,575.40
333.63,573.33
334.08,571.72
334.52,570.69
334.96,570.28
335.41,570.53
335.85,571.40
336.29,572.81
336.74,574.66
337.18,576.78
337.62,579.00
338.06,581.13
338.51,583.00
338.95,584.46
339.39,585.38
339.84,585.72
340.28,585.47
340.72,584.68
341.16,583.46
341.61,581.93
342.05,580.26
342.49,578.56
342.93,576.95
343.38,575.52
343.82,574.28
344.26,573.24
344.70,572.36
345.15,571.59
345.59,570.88
346.03,570.21
346.47,569.56
346.92,568.95
347.36,568.44
347.80,568.08
348.24,567.96
348.68,568.12
349.13,568.61
349.57,569.45
350.01,570.62
350.45,572.06
350.89,573.69
351.34,575.43
351.78,577.15
352.22,578.76
352.66,580.14
353.10,581.22
353.54,581.93
353.99,582.24
354.43,582.14
354.87,581.65
355.31,580.82
355.75,579.71
356.19,578.42
356.63,577.05
357.08,575.71
357.52,574.50
357.96,573.53
358.40,572.88
358.84,572.61
359.28,572.77
359.72,573.37
360.16,574.40
360.60,575.83
361.05,577.59
361.49,579.60
361.93,581.77
362.37,584.01
362.81,586.20
363.25,588.24
363.69,590.07
364.13,591.61
364.57,592.84
365.01,593.74
365.45,594.34
365.89,594.69
366.33,594.84
366.78,594.86
367.22,594.82
367.66,594.77
368.10,594.74
368.54,594.76
368.98,594.83
369.42,594.94
369.86,595.07
370.30,595.22
370.74,595.38
371.18,595.56
371.62,595.79
372.06,596.10
372.50,596.52
372.94,597.10
373.38,597.87
373.82,598.85
374.26,600.04
374.70,601.44
375.14,603.03
375.58,604.79
376.02,606.67
376.46,608.67
376.90,610.74
377.34,612.86
377.78,614.99
378.21,617.11
378.65,619.17
379.09,621.10
379.53,622.85
379.97,624.35
380.41,625.54
380.85,626.37
381.29,626.84
381.73,626.95
382.17,626.76
382.61,626.37
383.05,625.88
383.49,625.42
383.93,625.10
384.36,625.04
384.80,625.27
385.24,625.84
385.68,626.72
386.12,627.86
386.56,629.19
387.00,630.65
387.44,632.17
387.87,633.74
388.31,635.38
388.75,637.14
389.19,639.11
389.63,641.40
390.07,644.09
390.51,647.25
390.94,650.89
391.38,654.98
391.82,659.42
392.26,664.07
392.70,668.77
393.14,673.34
393.57,677.61
394.01,681.44
394.45,684.77
394.89,687.55
395.33,689.82
395.76,691.63
396.20,693.09
396.64,694.28
397.08,695.33
397.52,696.33
397.95,697.37
398.39,698.50
398.83,699.78
399.27,701.28
399.70,703.04
400.14,705.11
400.58,707.56
401.02,710.44
401.45,713.81
401.89,717.70
402.33,722.14
402.77,727.12
403.20,732.63
403.64,738.62
404.08,745.04
404.52,751.85
404.95,758.99
405.39,766.44
405.83,774.18
406.26,782.20
406.70,790.50
407.14,799.09
407.58,807.94
408.01,817.03
408.45,826.32
408.89,835.72
409.32,845.16
409.76,854.54
410.20,863.77
410.63,872.76
411.07,881.45
411.51,889.80
411.94,897.79
412.38,905.45
412.82,912.80
413.25,919.87
413.69,926.72
414.12,933.35
414.56,939.78
415.00,946.00
415.43,951.99
415.87,957.72
416.31,963.17
416.74,968.36
417.18,973.31
417.61,978.11
418.05,982.89
418.49,987.79
418.92,992.99
419.36,998.66
419.79,1004.95
420.23,1011.97
420.67,1019.78
421.10,1028.39
421.54,1037.73
421.97,1047.70
422.41,1058.17
422.84,1068.97
423.28,1079.93
423.71,1090.89
424.15,1101.74
424.59,1112.37
425.02,1122.75
425.46,1132.88
425.89,1142.83
426.33,1152.69
426.76,1162.60
427.20,1172.70
427.63,1183.10
428.07,1193.90
428.50,1205.16
428.94,1216.87
429.37,1228.95
429.81,1241.31
430.24,1253.80
430.68,1266.25
431.11,1278.52
431.55,1290.50
431.98,1302.12
432.42,1313.34
432.85,1324.20
433.28,1334.76
433.72,1345.10
434.15,1355.31
434.59,1365.48
435.02,1375.65
435.46,1385.83
435.89,1396.00
436.33,1406.10
436.76,1416.03
437.19,1425.71
437.63,1435.04
438.06,1443.98
438.50,1452.52
438.93,1460.68
439.37,1468.57
439.80,1476.29
440.23,1483.99
440.67,1491.84
441.10,1499.97
441.53,1508.51
441.97,1517.55
442.40,1527.14
442.84,1537.31
443.27,1548.02
443.70,1559.24
444.14,1570.89
444.57,1582.86
445.00,1595.05
445.44,1607.34
445.87,1619.58
446.30,1631.68
446.74,1643.50
447.17,1654.96
447.60,1665.99
448.04,1676.55
448.47,1686.61
448.90,1696.20
449.34,1705.35
449.77,1714.14
450.20,1722.66
450.64,1731.06
451.07,1739.48
451.50,1748.10
451.93,1757.10
452.37,1766.65
452.80,1776.94
453.23,1788.10
453.67,1800.24
454.10,1813.45
454.53,1827.76
454.96,1843.17
455.40,1859.63
455.83,1877.07
456.26,1895.38
456.69,1914.39
457.13,1933.92
457.56,1953.74
457.99,1973.60
458.42,1993.25
458.86,2012.47
459.29,2031.09
459.72,2049.00
460.15,2066.20
460.58,2082.77
461.02,2098.87
461.45,2114.72
461.88,2130.52
462.31,2146.48
462.74,2162.76
463.18,2179.43
463.61,2196.51
464.04,2214.00
464.47,2231.85
464.90,2250.03
465.33,2268.56
465.77,2287.47
466.20,2306.86
466.63,2326.83
467.06,2347.47
467.49,2368.89
467.92,2391.12
468.35,2414.23
468.78,2438.23
469.22,2463.16
469.65,2489.10
470.08,2516.13
470.51,2544.39
470.94,2573.98
471.37,2604.99
471.80,2637.43
472.23,2671.20
472.66,2706.12
473.10,2741.94
473.53,2778.35
473.96,2815.11
474.39,2852.06
474.82,2889.19
475.25,2926.66
475.68,2964.76
476.11,3003.88
476.54,3044.41
476.97,3086.63
477.40,3130.66
477.83,3176.38
478.26,3223.46
478.69,3271.40
479.12,3319.60
479.55,3367.52
479.98,3414.79
480.41,3461.25
480.84,3507.03
481.27,3552.46
481.70,3598.04
482.13,3644.26
482.56,3691.51
482.99,3739.94
483.42,3789.42
483.85,3839.55
484.28,3889.76
484.71,3939.39
485.14,3987.90
485.57,4034.95
486.00,4080.50
486.43,4124.82
486.86,4168.44
487.29,4211.98
487.72,4256.03
488.15,4300.99
488.58,4346.95
489.01,4393.63
489.44,4440.47
489.87,4486.70
490.30,4531.53
490.72,4574.31
491.15,4614.71
491.58,4652.77
492.01,4688.95
492.44,4723.99
492.87,4758.81
493.30,4794.25
493.73,4830.95
494.16,4869.14
494.59,4908.63
495.01,4948.79
495.44,4988.72
495.87,5027.41
496.30,5063.98
496.73,5097.90
497.16,5129.10
497.59,5158.02
498.01,5185.60
498.44,5213.05
498.87,5241.65
499.30,5272.50
499.73,5306.27
500.16,5343.10
500.58,5382.49
501.01,5423.43
501.44,5464.55
501.87,5504.37
502.30,5541.59
502.72,5575.31
503.15,5605.19
503.58,5631.53
504.01,5655.16
504.44,5677.31
504.86,5699.33
505.29,5722.50
505.72,5747.71
506.15,5775.38
506.57,5805.37
507.00,5837.02
507.43,5869.33
507.86,5901.15
508.28,5931.44
508.71,5959.46
509.14,5984.92
509.57,6008.05
509.99,6029.53
510.42,6050.36
510.85,6071.65
511.27,6094.41
511.70,6119.31
512.13,6146.60
512.56,6175.99
512.98,6206.75
513.41,6237.82
513.84,6268.04
514.26,6296.32
514.69,6321.92
515.12,6344.58
515.54,6364.55
515.97,6382.64
516.40,6400.01
516.82,6418.03
517.25,6438.01
517.68,6460.98
518.10,6487.47
518.53,6517.45
518.95,6550.26
519.38,6584.74
519.81,6619.40
520.23,6652.67
520.66,6683.16
521.09,6709.92
521.51,6732.55
521.94,6751.37
522.36,6767.31
522.79,6781.77
523.22,6796.44
523.64,6812.94
524.07,6832.62
524.49,6856.27
524.92,6883.98
525.34,6915.13
525.77,6948.44
526.20,6982.18
526.62,7014.42
527.05,7043.36
527.47,7067.60
527.90,7086.39
528.32,7099.73
528.75,7108.40
529.17,7113.85
529.60,7118.00
530.02,7122.90
530.45,7130.49
530.87,7142.26
531.30,7159.04
531.72,7180.89
532.15,7207.06
532.57,7236.18
533.00,7266.36
533.42,7295.58
533.85,7321.93
534.27,7343.93
534.70,7360.73
535.12,7372.27
535.55,7379.29
535.97,7383.24
536.40,7386.08
536.82,7390.03
537.25,7397.23
537.67,7409.44
538.09,7427.80
538.52,7452.61
538.94,7483.31
539.37,7518.48
539.79,7556.03
540.22,7593.46
540.64,7628.22
541.06,7657.98
541.49,7681.04
541.91,7696.51
542.34,7704.48
542.76,7706.02
543.18,7703.01
543.61,7697.95
544.03,7693.61
544.46,7692.61
544.88,7697.12
545.30,7708.55
545.73,7727.32
546.15,7752.86
546.57,7783.66
547.00,7817.44
547.42,7851.51
547.84,7883.07
548.27,7909.62
548.69,7929.27
549.11,7941.00
549.54,7944.77
549.96,7941.60
550.38,7933.39
550.81,7922.72
551.23,7912.50
551.65,7905.61
552.07,7904.54
552.50,7910.99
552.92,7925.70
553.34,7948.29
553.77,7977.27
554.19,8010.24
554.61,8044.17
555.03,8075.74
555.46,8101.81
555.88,8119.78
556.30,8127.93
556.72,8125.67
557.15,8113.61
557.57,8093.48
557.99,8068.00
558.41,8040.54
558.84,8014.72
559.26,7994.03
559.68,7981.40
560.10,7978.88
560.52,7987.42
560.95,8006.74
561.37,8035.40
561.79,8070.93
562.21,8110.18
562.63,8149.63
563.06,8185.84
563.48,8215.82
563.90,8237.40
564.32,8249.46
564.74,8252.09
565.16,8246.57
565.58,8235.26
566.01,8221.32
566.43,8208.37
566.85,8200.11
567.27,8199.86
567.69,8210.16
568.11,8232.50
568.53,8267.05
568.96,8312.62
569.38,8366.73
569.80,8425.80
570.22,8485.54
570.64,8541.31
571.06,8588.65
571.48,8623.69
571.90,8643.61
572.32,8646.91
572.74,8633.57
573.16,8605.11
573.58,8564.40
574.01,8515.41
574.43,8462.78
574.85,8411.37
575.27,8365.76
575.69,8329.81
576.11,8306.26
576.53,8296.51
576.95,8300.47
577.37,8316.63
577.79,8342.23
578.21,8373.58
578.63,8406.45
579.05,8436.48
579.47,8459.67
579.89,8472.77
580.31,8473.56
580.73,8461.09
581.15,8435.77
581.57,8399.29
581.99,8354.44
582.41,8304.85
582.83,8254.62
583.25,8207.88
583.67,8168.44
584.09,8139.41
584.51,8122.96
584.93,8120.09
585.34,8130.62
585.76,8153.20
586.18,8185.54
586.60,8224.58
587.02,8266.88
587.44,8308.87
587.86,8347.29
588.28,8379.44
588.70,8403.46
589.12,8418.54
589.54,8424.96
589.95,8424.11
590.37,8418.39
590.79,8410.93
591.21,8405.36
591.63,8405.44
592.05,8414.69
592.47,8436.06
592.89,8471.65
593.30,8522.46
593.72,8588.33
594.14,8667.88
594.56,8758.68
594.98,8857.39
595.40,8960.11
595.81,9062.62
596.23,9160.82
596.65,9251.03
597.07,9330.27
597.49,9396.55
597.90,9449.00
598.32,9487.93
598.74,9514.77
599.16,9531.95
599.58,9542.66
599.99,9550.52
600.41,9559.24
600.83,9572.30
601.25,9592.54
601.66,9621.98
602.08,9661.55
602.50,9711.04
602.92,9769.09
603.33,9833.33
603.75,9900.60
604.17,9967.16
604.59,10029.12
605.00,10082.66
605.42,10124.44
605.84,10151.80
606.25,10163.05
606.67,10157.54
607.09,10135.79
607.51,10099.40
607.92,10050.96
608.34,9993.86
608.76,9932.03
609.17,9869.66
609.59,9810.87
610.01,9759.42
610.42,9718.39
610.84,9690.02
611.26,9675.51
611.67,9674.97
612.09,9687.44
612.51,9711.00
612.92,9742.96
613.34,9780.11
613.75,9818.96
614.17,9856.09
614.59,9888.37
615.00,9913.21
615.42,9928.72
615.83,9933.87
616.25,9928.52
616.67,9913.39
617.08,9890.04
617.50,9860.69
617.91,9828.09
618.33,9795.29
618.75,9765.46
619.16,9741.62
619.58,9726.42
619.99,9721.98
620.41,9729.67
620.82,9750.02
621.24,9782.70
621.65,9826.52
622.07,9879.52
622.48,9939.13
622.90,10002.38
623.31,10066.07
623.73,10127.09
624.14,10182.54
624.56,10230.00
624.97,10267.61
625.39,10294.22
625.80,10309.44
626.22,10313.60
626.63,10307.77
627.05,10293.64
627.46,10273.41
627.88,10249.70
628.29,10225.32
628.71,10203.16
629.12,10185.95
629.54,10176.15
629.95,10175.72
630.37,10186.01
630.78,10207.65
631.19,10240.51
631.61,10283.66
632.02,10335.47
632.44,10393.71
632.85,10455.70
633.26,10518.55
633.68,10579.33
634.09,10635.30
634.51,10684.12
634.92,10723.98
635.33,10753.75
635.75,10773.03
636.16,10782.14
636.57,10782.13
636.99,10774.66
637.40,10761.92
637.82,10746.42
638.23,10730.88
638.64,10718.02
639.06,10710.37
639.47,10710.12
639.88,10718.96
640.30,10737.99
640.71,10767.63
641.12,10807.66
641.53,10857.19
641.95,10914.77
642.36,10978.51
642.77,11046.19
643.19,11115.42
643.60,11183.78
644.01,11248.96
644.42,11308.86
644.84,11361.70
645.25,11406.10
645.66,11441.13
646.08,11466.37
646.49,11481.90
646.90,11488.36
647.31,11486.87
647.73,11479.03
648.14,11466.83
648.55,11452.56
648.96,11438.69
649.37,11427.72
649.79,11422.01
650.20,11423.63
650.61,11434.23
651.02,11454.89
651.43,11486.07
651.85,11527.58
652.26,11578.56
652.67,11637.59
653.08,11702.77
653.49,11771.86
653.90,11842.41
654.32,11911.95
654.73,11978.10
655.14,12038.70
655.55,12091.93
655.96,12136.38
656.37,12171.09
656.78,12195.61
657.20,12209.97
657.61,12214.70
658.02,12210.83
658.43,12199.78
658.84,12183.35
659.25,12163.65
659.66,12142.96
660.07,12123.66
660.48,12108.09
660.90,12098.44
661.31,12096.60
661.72,12104.09
662.13,12121.91
662.54,12150.54
662.95,12189.84
663.36,12239.10
663.77,12297.05
664.18,12361.91
664.59,12431.56
665.00,12503.59
665.41,12575.48
665.82,12644.74
666.23,12709.04
666.64,12766.31
667.05,12814.84
667.46,12853.37
667.87,12881.08
668.28,12897.66
668.69,12903.27
669.10,12898.58
669.51,12884.71
669.92,12863.24
670.33,12836.10
670.74,12805.59
671.15,12774.21
671.56,12744.57
671.97,12719.24
672.38,12700.58
672.79,12690.63
673.20,12690.93
673.61,12702.41
674.02,12725.39
674.42,12759.50
674.83,12803.74
675.24,12856.61
675.65,12916.14
676.06,12980.09
676.47,13046.09
676.88,13111.70
677.29,13174.64
677.70,13232.77
678.11,13284.27
678.51,13327.61
678.92,13361.64
679.33,13385.57
679.74,13399.05
680.15,13402.11
680.56,13395.20
680.97,13379.19
681.37,13355.33
681.78,13325.24
682.19,13290.82
682.60,13254.23
683.01,13217.77
683.42,13183.74
683.82,13154.39
684.23,13131.72
684.64,13117.43
685.05,13112.80
685.45,13118.60
685.86,13135.12
686.27,13162.08
686.68,13198.75
687.09,13243.92
687.49,13296.04
687.90,13353.27
688.31,13413.57
688.72,13474.78
689.12,13534.71
689.53,13591.22
689.94,13642.28
690.35,13686.09
690.75,13721.11
691.16,13746.18
691.57,13760.54
691.97,13763.94
692.38,13756.60
692.79,13739.27
693.20,13713.17
693.60,13679.99
694.01,13641.76
694.42,13600.76
694.82,13559.45
695.23,13520.31
695.64,13485.71
696.04,13457.79
696.45,13438.37
696.86,13428.84
697.26,13430.09
697.67,13442.47
698.07,13465.82
698.48,13499.47
698.89,13542.28
699.29,13592.74
699.70,13649.03
700.11,13709.11
700.51,13770.83
700.92,13831.96
701.32,13890.34
701.73,13943.91
702.14,13990.83
702.54,14029.54
702.95,14058.82
703.35,14077.90
703.76,14086.42
704.16,14084.53
704.57,14072.83
704.97,14052.30
705.38,14024.31
705.79,13990.49
706.19,13952.66
706.60,13912.74
707.00,13872.67
707.41,13834.37
707.81,13799.64
708.22,13770.10
708.62,13747.21
709.03,13732.12
709.43,13725.71
709.84,13728.52
710.24,13740.74
710.65,13762.18
711.05,13792.26
711.46,13830.07
711.86,13874.40
712.27,13923.76
712.67,13976.51
713.07,14030.88
713.48,14085.12
713.88,14137.54
714.29,14186.57
714.69,14230.86
715.10,14269.25
715.50,14300.82
715.90,14324.89
716.31,14340.95
716.71,14348.73
717.12,14348.11
717.52,14339.18
717.92,14322.23
718.33,14297.76
718.73,14266.52
719.14,14229.55
719.54,14188.11
719.94,14143.75
720.35,14098.18
720.75,14053.27
721.15,14010.90
721.56,13972.93
721.96,13941.02
722.36,13916.65
722.77,13900.94
723.17,13894.69
723.57,13898.26
723.98,13911.65
724.38,13934.43
724.78,13965.78
725.19,14004.56
725.59,14049.32
725.99,14098.39
726.39,14149.95
726.80,14202.11
727.20,14252.98
727.60,14300.75
728.00,14343.75
728.41,14380.48
728.81,14409.65
729.21,14430.22
729.61,14441.38
730.02,14442.59
730.42,14433.58
730.82,14414.35
731.22,14385.22
731.63,14346.79
732.03,14300.01
732.43,14246.10
732.83,14186.55
733.23,14123.10
733.64,14057.65
734.04,13992.22
734.44,13928.86
734.84,13869.57
735.24,13816.26
735.64,13770.63
736.05,13734.11
736.45,13707.79
736.85,13692.36
737.25,13688.07
737.65,13694.69
738.05,13711.54
738.45,13737.51
738.86,13771.11
739.26,13810.59
739.66,13853.98
740.06,13899.28
740.46,13944.49
740.86,13987.73
741.26,14027.28
741.66,14061.66
742.06,14089.61
742.46,14110.13
742.87,14122.45
743.27,14126.01
743.67,14120.50
744.07,14105.80
744.47,14082.04
744.87,14049.56
745.27,14009.00
745.67,13961.23
746.07,13907.43
746.47,13849.08
746.87,13787.90
747.27,13725.86
747.67,13665.14
748.07,13608.01
748.47,13556.80
748.87,13513.77
749.27,13481.05
749.67,13460.53
750.07,13453.76
750.47,13461.85
750.87,13485.47
751.27,13524.72
751.67,13579.15
752.07,13647.72
752.47,13728.85
752.87,13820.46
753.27,13920.03
753.66,14024.72
754.06,14131.50
754.46,14237.22
754.86,14338.81
755.26,14433.34
755.66,14518.17
756.06,14590.99
756.46,14649.88
756.86,14693.37
757.26,14720.41
757.65,14730.36
758.05,14722.97
758.45,14698.35
758.85,14656.92
759.25,14599.37
759.65,14526.66
760.05,14439.96
760.44,14340.69
760.84,14230.43
761.24,14110.98
761.64,13984.29
762.04,13852.49
762.44,13717.81
762.83,13582.57
763.23,13449.11
763.63,13319.69
764.03,13196.50
764.43,13081.49
764.82,12976.38
765.22,12882.52
765.62,12800.94
766.02,12732.22
766.41,12676.54
766.81,12633.70
767.21,12603.10
767.61,12583.81
768.00,12574.61
768.40,12574.05
768.80,12580.50
769.20,12592.19
769.59,12607.30
769.99,12623.95
770.39,12640.27
770.79,12654.45
771.18,12664.77
771.58,12669.66
771.98,12667.72
772.37,12657.78
772.77,12638.91
773.17,12610.49
773.56,12572.18
773.96,12523.93
774.36,12466.00
774.75,12398.90
775.15,12323.38
775.55,12240.39
775.94,12151.06
776.34,12056.64
776.73,11958.53
777.13,11858.20
777.53,11757.21
777.92,11657.20
778.32,11559.80
778.72,11466.63
779.11,11379.26
779.51,11299.09
779.90,11227.37
780.30,11165.04
780.69,11112.80
781.09,11070.97
781.49,11039.58
781.88,11018.32
782.28,11006.62
782.67,11003.69
783.07,11008.55
783.46,11020.12
783.86,11037.24
784.25,11058.69
784.65,11083.26
785.04,11109.71
785.44,11136.78
785.83,11163.23
786.23,11187.81
786.62,11209.28
787.02,11226.45
787.41,11238.21
787.81,11243.54
788.20,11241.60
788.60,11231.73
788.99,11213.48
789.39,11186.61
789.78,11151.11
790.18,11107.16
790.57,11055.12
790.97,10995.50
791.36,10928.97
791.75,10856.28
792.15,10778.31
792.54,10696.08
792.94,10610.71
793.33,10523.43
793.72,10435.61
794.12,10348.71
794.51,10264.23
794.91,10183.71
795.30,10108.60
795.69,10040.29
796.09,9979.96
796.48,9928.61
796.87,9886.98
797.27,9855.53
797.66,9834.43
798.05,9823.60
798.45,9822.63
798.84,9830.89
799.23,9847.47
799.63,9871.24
800.02,9900.91
800.41,9935.02
800.81,9972.02
801.20,10010.33
801.59,10048.37
801.99,10084.67
802.38,10117.87
802.77,10146.78
803.16,10170.41
803.56,10187.97
803.95,10198.87
804.34,10202.75
804.73,10199.38
805.13,10188.71
805.52,10170.81
805.91,10145.83
806.30,10114.01
806.69,10075.61
807.09,10030.96
807.48,9980.38
807.87,9924.23
808.26,9862.93
808.66,9796.94
809.05,9726.85
809.44,9653.36
809.83,9577.34
810.22,9499.86
810.61,9422.14
811.01,9345.54
811.40,9271.53
811.79,9201.60
812.18,9137.20
812.57,9079.62
812.96,9029.97
813.35,8989.10
813.75,8957.53
814.14,8935.50
814.53,8922.90
814.92,8919.36
815.31,8924.21
815.70,8936.59
816.09,8955.43
816.48,8979.56
816.87,9007.70
817.26,9038.56
817.65,9070.82
818.04,9103.26
818.44,9134.68
818.83,9164.05
819.22,9190.43
819.61,9213.06
820.00,9231.32
820.39,9244.74
820.78,9253.01
821.17,9255.92
821.56,9253.36
821.95,9245.30
822.34,9231.74
822.73,9212.73
823.12,9188.29
823.51,9158.49
823.90,9123.39
824.29,9083.09
824.68,9037.77
825.07,8987.67
825.46,8933.15
825.85,8874.71
826.24,8812.97
826.62,8748.69
827.01,8682.75
827.40,8616.13
827.79,8549.84
828.18,8484.94
828.57,8422.44
828.96,8363.31
829.35,8308.40
829.74,8258.47
830.13,8214.15
830.52,8175.92
830.90,8144.15
831.29,8119.08
831.68,8100.87
832.07,8089.54
832.46,8085.04
832.85,8087.22
833.24,8095.78
833.62,8110.33
834.01,8130.34
834.40,8155.15
834.79,8183.97
835.18,8215.91
835.57,8250.00
835.95,8285.19
836.34,8320.42
836.73,8354.62
837.12,8386.74
837.51,8415.78
837.89,8440.81
838.28,8461.02
838.67,8475.71
839.06,8484.35
839.44,8486.61
839.83,8482.35
840.22,8471.64
840.61,8454.75
840.99,8432.11
841.38,8404.27
841.77,8371.85
842.16,8335.51
842.54,8295.87
842.93,8253.51
843.32,8208.92
843.70,8162.56
844.09,8114.80
844.48,8065.99
844.86,8016.47
845.25,7966.58
845.64,7916.72
846.02,7867.29
846.41,7818.75
846.80,7771.62
847.18,7726.44
847.57,7683.77
847.96,7644.16
848.34,7608.18
848.73,7576.31
849.12,7549.01
849.50,7526.63
849.89,7509.42
850.27,7497.49
850.66,7490.84
851.05,7489.33
851.43,7492.67
851.82,7500.48
852.20,7512.24
852.59,7527.37
852.97,7545.21
853.36,7565.07
853.75,7586.23
854.13,7607.98
854.52,7629.67
854.90,7650.68
855.29,7670.47
855.67,7688.59
856.06,7704.69
856.44,7718.48
856.83,7729.78
857.21,7738.45
857.60,7744.38
857.98,7747.49
858.37,7747.68
858.75,7744.83
859.14,7738.77
859.52,7729.33
859.91,7716.29
860.29,7699.45
860.68,7678.68
861.06,7653.88
861.44,7625.10
861.83,7592.53
862.21,7556.50
862.60,7517.54
862.98,7476.34
863.37,7433.68
863.75,7390.46
864.13,7347.57
864.52,7305.90
864.90,7266.22
865.29,7229.16
865.67,7195.18
866.05,7164.54
866.44,7137.33
866.82,7113.47
867.20,7092.76
867.59,7074.96
867.97,7059.78
868.35,7046.99
868.74,7036.38
869.12,7027.84
869.50,7021.34
869.89,7016.89
870.27,7014.55
870.65,7014.36
871.04,7016.36
871.42,7020.50
871.80,7026.67
872.19,7034.69
872.57,7044.28
872.95,7055.11
873.33,7066.81
873.72,7078.97
874.10,7091.20
874.48,7103.10
874.86,7114.37
875.25,7124.72
875.63,7133.95
876.01,7141.97
876.39,7148.73
876.77,7154.31
877.16,7158.84
877.54,7162.53
877.92,7165.66
878.30,7168.51
878.68,7171.42
879.07,7174.72
879.45,7178.72
879.83,7183.73
880.21,7190.01
880.59,7197.82
880.97,7207.38
881.36,7218.87
881.74,7232.46
882.12,7248.31
882.50,7266.52
882.88,7287.16
883.26,7310.29
883.64,7335.88
884.02,7363.90
884.41,7394.28
884.79,7426.90
885.17,7461.67
885.55,7498.51
885.93,7537.38
886.31,7578.29
886.69,7621.32
887.07,7666.58
887.45,7714.22
887.83,7764.41
888.21,7817.22
888.59,7872.64
888.97,7930.50
889.35,7990.43
889.73,8051.85
890.11,8113.96
890.49,8175.79
890.87,8236.21
891.25,8294.04
891.63,8348.08
892.01,8397.23
892.39,8440.48
892.77,8477.03
893.15,8506.24
893.53,8527.66
893.91,8540.99
894.29,8546.06
894.67,8542.82
895.05,8531.26
895.43,8511.45
895.81,8483.50
896.19,8447.57
896.57,8403.89
896.95,8352.74
897.32,8294.50
897.70,8229.59
898.08,8158.50
898.46,8081.77
898.84,7999.95
899.22,7913.59
899.60,7823.23
899.98,7729.39
900.35,7632.58
900.73,7533.32
901.11,7432.10
901.49,7329.48
901.87,7226.04
902.25,7122.39
902.63,7019.17
903.00,6917.04
903.38,6816.65
903.76,6718.59
904.14,6623.39
904.52,6531.47
904.89,6443.15
905.27,6358.63
905.65,6278.00
906.03,6201.26
906.40,6128.35
906.78,6059.16
907.16,5993.59
907.54,5931.55
907.91,5872.95
908.29,5817.77
908.67,5765.98
909.05,5717.58
909.42,5672.54
909.80,5630.81
910.18,5592.31
910.55,5556.91
910.93,5524.41
911.31,5494.62
911.68,5467.26
912.06,5442.10
912.44,5418.84
912.82,5397.21
913.19,5376.95
913.57,5357.75
913.94,5339.34
914.32,5321.42
914.70,5303.69
915.07,5285.85
915.45,5267.61
915.83,5248.74
916.20,5229.02
916.58,5208.31
916.95,5186.54
917.33,5163.69
917.71,5139.81
918.08,5114.99
918.46,5089.34
918.83,5062.99
919.21,5036.05
919.58,5008.60
919.96,4980.71
920.34,4952.43
920.71,4923.77
921.09,4894.77
921.46,4865.46
921.84,4835.89
922.21,4806.10
922.59,4776.18
922.96,4746.19
923.34,4716.16
923.71,4686.13
924.09,4656.07
924.46,4625.93
924.84,4595.60
925.21,4564.99
925.59,4533.99
925.96,4502.51
926.34,4470.51
926.71,4438.01
927.08,4405.10
927.46,4371.94
927.83,4338.74
928.21,4305.78
928.58,4273.35
928.96,4241.80
929.33,4211.42
929.70,4182.53
930.08,4155.37
930.45,4130.14
930.83,4106.96
931.20,4085.87
931.57,4066.83
931.95,4049.72
932.32,4034.36
932.69,4020.49
933.07,4007.84
933.44,3996.10
933.81,3984.98
934.19,3974.20
934.56,3963.53
934.93,3952.79
935.31,3941.84
935.68,3930.58
936.05,3918.97
936.43,3906.98
936.80,3894.61
937.17,3881.85
937.54,3868.71
937.92,3855.15
938.29,3841.13
938.66,3826.60
939.03,3811.46
939.41,3795.64
939.78,3779.03
940.15,3761.58
940.52,3743.22
940.90,3723.93
941.27,3703.73
941.64,3682.68
942.01,3660.85
942.38,3638.37
942.76,3615.37
943.13,3591.99
943.50,3568.33
943.87,3544.53
944.24,3520.66
944.61,3496.78
944.99,3472.95
945.36,3449.21
945.73,3425.57
946.10,3402.06
946.47,3378.69
946.84,3355.46
947.21,3332.36
947.59,3309.36
947.96,3286.40
948.33,3263.41
948.70,3240.32
949.07,3217.04
949.44,3193.52
949.81,3169.70
950.18,3145.58
950.55,3121.17
950.92,3096.53
951.29,3071.74
951.66,3046.91
952.03,3022.15
952.41,2997.63
952.78,2973.50
953.15,2949.92
953.52,2927.09
953.89,2905.17
954.26,2884.31
954.63,2864.65
955.00,2846.26
955.37,2829.18
955.74,2813.36
956.11,2798.71
956.48,2785.08
956.84,2772.28
957.21,2760.08
957.58,2748.25
957.95,2736.56
958.32,2724.78
958.69,2712.74
959.06,2700.28
959.43,2687.33
959.80,2673.82
960.17,2659.75
960.54,2645.17
960.91,2630.13
961.28,2614.75
961.64,2599.10
962.01,2583.30
962.38,2567.41
962.75,2551.50
963.12,2535.63
963.49,2519.81
963.86,2504.07
964.22,2488.44
964.59,2472.92
964.96,2457.55
965.33,2442.34
965.70,2427.32
966.07,2412.51
966.43,2397.92
966.80,2383.52
967.17,2369.30
967.54,2355.21
967.91,2341.19
968.27,2327.17
968.64,2313.09
969.01,2298.86
969.38,2284.40
969.74,2269.61
970.11,2254.40
970.48,2238.64
970.85,2222.24
971.21,2205.09
971.58,2187.13
971.95,2168.36
972.31,2148.82
972.68,2128.65
973.05,2108.05
973.42,2087.30
973.78,2066.69
974.15,2046.56
974.52,2027.17
974.88,2008.77
975.25,1991.47
975.62,1975.30
975.98,1960.18
976.35,1945.94
976.72,1932.33
977.08,1919.05
977.45,1905.82
977.81,1892.36
978.18,1878.46
978.55,1863.99
978.91,1848.86
979.28,1833.12
979.64,1816.86
980.01,1800.25
980.38,1783.53
980.74,1766.95
981.11,1750.81
981.47,1735.36
981.84,1720.85
982.20,1707.45
982.57,1695.28
982.93,1684.33
983.30,1674.54
983.66,1665.76
984.03,1657.76
984.39,1650.29
984.76,1643.08
985.12,1635.88
985.49,1628.49
985.85,1620.75
986.22,1612.58
986.58,1603.93
986.95,1594.84
987.31,1585.37
987.68,1575.62
988.04,1565.70
988.41,1555.72
988.77,1545.79
989.13,1535.99
989.50,1526.38
989.86,1517.00
990.23,1507.84
990.59,1498.86
990.96,1489.98
991.32,1481.13
991.68,1472.17
992.05,1463.00
992.41,1453.54
992.77,1443.70
993.14,1433.46
993.50,1422.83
993.86,1411.90
994.23,1400.76
994.59,1389.55
994.95,1378.45
995.32,1367.59
995.68,1357.13
996.04,1347.14
996.41,1337.69
996.77,1328.77
997.13,1320.31
997.50,1312.19
997.86,1304.29
998.22,1296.41
998.58,1288.41
998.95,1280.13
999.31,1271.45
999.67,1262.32
1000.03,1252.72
1000.40,1242.69
1000.76,1232.32
1001.12,1221.72
1001.48,1211.02
1001.84,1200.34
1002.21,1189.76
1002.57,1179.34
1002.93,1169.08
1003.29,1158.97
1003.65,1148.93
1004.02,1138.93
1004.38,1128.90
1004.74,1118.83
1005.10,1108.75
1005.46,1098.72
1005.82,1088.85
1006.19,1079.27
1006.55,1070.12
1006.91,1061.52
1007.27,1053.59
1007.63,1046.36
1007.99,1039.84
1008.35,1033.98
1008.71,1028.68
1009.07,1023.82
1009.43,1019.27
1009.80,1014.91
1010.16,1010.62
1010.52,1006.34
1010.88,1002.05
1011.24,997.77
1011.60,993.54
1011.96,989.40
1012.32,985.40
1012.68,981.56
1013.04,977.85
1013.40,974.21
1013.76,970.53
1014.12,966.67
1014.48,962.48
1014.84,957.84
1015.20,952.63
1015.56,946.81
1015.92,940.36
1016.28,933.36
1016.64,925.91
1017.00,918.15
1017.36,910.25
1017.72,902.37
1018.07,894.66
1018.43,887.23
1018.79,880.15
1019.15,873.47
1019.51,867.20
1019.87,861.32
1020.23,855.81
1020.59,850.66
1020.95,845.84
1021.31,841.35
1021.66,837.21
1022.02,833.42
1022.38,830.00
1022.74,826.95
1023.10,824.25
1023.46,821.84
1023.81,819.68
1024.17,817.68
1024.53,815.75
1024.89,813.81
1025.25,811.78
1025.60,809.59
1025.96,807.19
1026.32,804.50
1026.68,801.49
1027.04,798.46
1027.39,794.96
1027.75,790.79
1028.11,786.12
1028.47,781.15
1028.82,788.04
1029.18,767.72
1029.54,755.02
1029.90,755.02
1030.25,755.02
