wavelength,counts
188.65,76.82
189.10,76.82
189.56,76.82
190.01,76.82
190.47,76.82
190.92,95.31
191.37,104.09
191.83,114.76
192.28,127.36
192.74,141.81
193.19,157.89
193.64,175.31
194.10,194.07
194.55,213.88
195.01,234.44
195.46,255.45
195.91,276.65
196.37,297.80
196.82,318.71
197.27,339.23
197.73,359.25
198.18,378.65
198.63,397.35
199.09,415.26
199.54,432.29
199.99,448.35
200.45,463.35
200.90,477.19
201.35,489.81
201.81,501.16
202.26,511.21
202.71,519.95
203.17,527.41
203.62,533.66
204.07,538.75
204.53,542.79
204.98,545.89
205.43,548.17
205.89,549.75
206.34,550.74
206.79,551.28
207.25,551.44
207.70,551.32
208.15,550.98
208.60,550.46
209.06,549.78
209.51,548.95
209.96,547.98
210.41,546.86
210.87,545.61
211.32,544.25
211.77,542.82
212.23,541.40
212.68,540.06
213.13,538.88
213.58,537.93
214.04,537.26
214.49,536.91
214.94,536.86
215.39,537.06
215.84,537.45
216.30,537.92
216.75,538.37
217.20,538.71
217.65,538.87
218.11,538.80
218.56,538.49
219.01,537.95
219.46,537.25
219.91,536.44
220.37,535.62
220.82,534.87
221.27,534.27
221.72,533.92
222.17,533.85
222.63,534.13
223.08,534.76
223.53,535.75
223.98,537.08
224.43,538.71
224.88,540.60
225.34,542.70
225.79,544.93
226.24,547.25
226.69,549.58
227.14,551.87
227.59,554.06
228.04,556.09
228.50,557.91
228.95,559.49
229.40,560.79
229.85,561.80
230.30,562.52
230.75,562.97
231.20,563.17
231.66,563.19
232.11,563.05
232.56,562.81
233.01,562.53
233.46,562.22
233.91,561.93
234.36,561.67
234.81,561.44
235.26,561.23
235.71,561.05
236.17,560.88
236.62,560.73
237.07,560.61
237.52,560.53
237.97,560.52
238.42,560.59
238.87,560.76
239.32,561.05
239.77,561.44
240.22,561.91
240.67,562.44
241.12,562.97
241.57,563.46
242.02,563.87
242.47,564.14
242.92,564.26
243.37,564.21
243.82,563.98
244.27,563.59
244.72,563.06
245.18,562.42
245.63,561.70
246.08,560.93
246.53,560.15
246.98,559.36
247.43,558.56
247.88,557.73
248.33,556.83
248.78,555.82
249.23,554.62
249.68,553.20
250.12,551.48
250.57,549.44
251.02,547.08
251.47,544.40
251.92,541.46
252.37,538.35
252.82,535.15
253.27,531.97
253.72,528.94
254.17,526.16
254.62,523.71
255.07,521.67
255.52,520.07
255.97,518.95
256.42,518.31
256.87,518.13
257.32,518.39
257.77,519.05
258.22,520.08
258.66,521.44
259.11,523.07
259.56,524.89
260.01,526.82
260.46,528.78
260.91,530.65
261.36,532.34
261.81,533.74
262.26,534.78
262.71,535.43
263.15,535.68
263.60,535.56
264.05,535.15
264.50,534.57
264.95,533.93
265.40,533.38
265.85,533.06
266.30,533.06
266.74,533.45
267.19,534.29
267.64,535.54
268.09,537.18
268.54,539.11
268.99,541.25
269.43,543.49
269.88,545.75
270.33,547.96
270.78,550.09
271.23,552.11
271.68,554.04
272.12,555.90
272.57,557.69
273.02,559.41
273.47,561.04
273.92,562.52
274.36,563.79
274.81,564.76
275.26,565.35
275.71,565.52
276.16,565.25
276.60,564.55
277.05,563.49
277.50,562.17
277.95,560.71
278.39,559.25
278.84,557.90
279.29,556.77
279.74,555.91
280.19,555.35
280.63,555.07
281.08,555.02
281.53,555.10
281.98,555.24
282.42,555.34
282.87,555.32
283.32,555.14
283.76,554.77
284.21,554.24
284.66,553.58
285.11,552.86
285.55,552.16
286.00,551.54
286.45,551.09
286.89,550.84
287.34,550.84
287.79,551.08
288.23,551.56
288.68,552.22
289.13,553.01
289.58,553.83
290.02,554.59
290.47,555.19
290.92,555.55
291.36,555.57
291.81,555.22
292.26,554.49
292.70,553.38
293.15,551.96
293.60,550.33
294.04,548.59
294.49,546.85
294.93,545.24
295.38,543.84
295.83,542.71
296.27,541.89
296.72,541.39
297.17,541.20
297.61,541.30
298.06,541.67
298.50,542.27
298.95,543.09
299.40,544.11
299.84,545.30
300.29,546.65
300.73,548.11
301.18,549.64
301.63,551.19
302.07,552.71
302.52,554.13
302.96,555.41
303.41,556.52
303.85,557.44
304.30,558.17
304.75,558.75
305.19,559.18
305.64,559.53
306.08,559.82
306.53,560.08
306.97,560.33
307.42,560.61
307.86,560.92
308.31,561.29
308.75,561.76
309.20,562.37
309.65,563.16
310.09,564.19
310.54,565.47
310.98,567.04
311.43,568.88
311.87,570.96
312.32,573.22
312.76,575.56
313.21,577.89
313.65,580.11
314.10,582.14
314.54,583.90
314.99,585.32
315.43,586.37
315.87,587.01
316.32,587.21
316.76,586.97
317.21,586.27
317.65,585.12
318.10,583.53
318.54,581.54
318.99,579.20
319.43,576.60
319.88,573.85
320.32,571.09
320.76,568.47
321.21,566.13
321.65,564.23
322.10,562.88
322.54,562.19
322.99,562.19
323.43,562.90
323.87,564.26
324.32,566.18
324.76,568.50
325.21,571.05
325.65,573.62
326.09,576.02
326.54,578.07
326.98,579.62
327.42,580.56
327.87,580.88
328.31,580.57
328.76,579.72
329.20,578.43
329.64,576.84
330.09,575.10
330.53,573.34
330.97,571.67
331.42,570.17
331.86,568.92
332.30,567.93
332.75,567.22
333.19,566.79
333.63,566.62
334.08,566.71
334.52,567.02
334.96,567.53
335.41,568.20
335.85,568.96
336.29,569.74
336.74,570.47
337.18,571.06
337.62,571.44
338.06,571.57
338.51,571.43
338.95,571.04
339.39,570.44
339.84,569.72
340.28,568.96
340.72,568.27
341.16,567.73
341.61,567.42
342.05,567.37
342.49,567.60
342.93,568.11
343.38,568.88
343.82,569.87
344.26,571.07
344.70,572.44
345.15,573.97
345.59,575.64
346.03,577.43
346.47,579.33
346.92,581.32
347.36,583.36
347.80,585.38
348.24,587.34
348.68,589.14
349.13,590.71
349.57,591.98
350.01,592.89
350.45,593.39
350.89,593.48
351.34,593.17
351.78,592.50
352.22,591.54
352.66,590.37
353.10,589.09
353.54,587.77
353.99,586.48
354.43,585.29
354.87,584.22
355.31,583.28
355.75,582.48
356.19,581.80
356.63,581.23
357.08,580.77
357.52,580.41
357.96,580.14
358.40,579.99
358.84,579.96
359.28,580.04
359.72,580.21
360.16,580.47
360.60,580.76
361.05,581.03
361.49,581.25
361.93,581.35
362.37,581.30
362.81,581.07
363.25,580.67
363.69,580.12
364.13,579.44
364.57,578.69
365.01,577.95
365.45,577.26
365.89,576.69
366.33,576.30
366.78,576.14
367.22,576.24
367.66,576.64
368.10,577.35
368.54,578.37
368.98,579.69
369.42,581.27
369.86,583.05
370.30,584.97
370.74,586.95
371.18,588.89
371.62,590.72
372.06,592.38
372.50,593.83
372.94,595.09
373.38,596.17
373.82,597.15
374.26,598.09
374.70,599.09
375.14,600.21
375.58,601.48
376.02,602.91
376.46,604.45
376.90,606.04
377.34,607.56
377.78,608.90
378.21,609.95
378.65,610.62
379.09,610.87
379.53,610.70
379.97,610.15
380.41,609.33
380.85,608.37
381.29,607.43
381.73,606.68
382.17,606.26
382.61,606.30
383.05,606.86
383.49,607.96
383.93,609.60
384.36,611.69
384.80,614.16
385.24,616.93
385.68,619.92
386.12,623.08
386.56,626.39
387.00,629.85
387.44,633.49
387.87,637.31
388.31,641.34
388.75,645.53
389.19,649.83
389.63,654.14
390.07,658.35
390.51,662.33
390.94,665.97
391.38,669.17
391.82,671.90
392.26,674.15
392.70,675.98
393.14,677.47
393.57,678.74
394.01,679.92
394.45,681.13
394.89,682.48
395.33,684.06
395.76,685.91
396.20,688.06
396.64,690.50
397.08,693.22
397.52,696.16
397.95,699.30
398.39,702.62
398.83,706.09
399.27,709.72
399.70,713.53
400.14,717.56
400.58,721.85
401.02,726.45
401.45,731.38
401.89,736.68
402.33,742.37
402.77,748.45
403.20,754.90
403.64,761.72
404.08,768.86
404.52,776.30
404.95,784.00
405.39,791.93
405.83,800.04
406.26,808.28
406.70,816.57
407.14,824.84
407.58,833.00
408.01,840.94
408.45,848.58
408.89,855.83
409.32,862.62
409.76,868.92
410.20,874.74
410.63,880.10
411.07,885.08
411.51,889.76
411.94,894.26
412.38,898.68
412.82,903.11
413.25,907.63
413.69,912.30
414.12,917.15
414.56,922.19
415.00,927.45
415.43,932.94
415.87,938.68
416.31,944.71
416.74,951.07
417.18,957.83
417.61,965.05
418.05,972.77
418.49,981.04
418.92,989.86
419.36,999.20
419.79,1009.01
420.23,1019.17
420.67,1029.54
421.10,1039.94
421.54,1050.21
421.97,1060.19
422.41,1069.74
422.84,1078.81
423.28,1087.38
423.71,1095.55
424.15,1103.45
424.59,1111.28
425.02,1119.27
425.46,1127.64
425.89,1136.58
426.33,1146.22
426.76,1156.60
427.20,1167.67
427.63,1179.32
428.07,1191.35
428.50,1203.53
428.94,1215.65
429.37,1227.48
429.81,1238.87
430.24,1249.71
430.68,1259.97
431.11,1269.70
431.55,1278.98
431.98,1287.95
432.42,1296.76
432.85,1305.55
433.28,1314.48
433.72,1323.64
434.15,1333.11
434.59,1342.93
435.02,1353.09
435.46,1363.57
435.89,1374.32
436.33,1385.26
436.76,1396.34
437.19,1407.50
437.63,1418.70
438.06,1429.91
438.50,1441.09
438.93,1452.23
439.37,1463.28
439.80,1474.21
440.23,1484.97
440.67,1495.49
441.10,1505.71
441.53,1515.57
441.97,1525.03
442.40,1534.09
442.84,1542.74
443.27,1551.03
443.70,1559.03
444.14,1566.84
444.57,1574.57
445.00,1582.34
445.44,1590.27
445.87,1598.49
446.30,1607.08
446.74,1616.14
447.17,1625.73
447.60,1635.88
448.04,1646.58
448.47,1657.79
448.90,1669.46
449.34,1681.51
449.77,1693.87
450.20,1706.45
450.64,1719.20
451.07,1732.11
451.50,1745.15
451.93,1758.35
452.37,1771.74
452.80,1785.33
453.23,1799.18
453.67,1813.30
454.10,1827.73
454.53,1842.50
454.96,1857.68
455.40,1873.32
455.83,1889.49
456.26,1906.26
456.69,1923.67
457.13,1941.74
457.56,1960.40
457.99,1979.58
458.42,1999.13
458.86,2018.88
459.29,2038.66
459.72,2058.35
460.15,2077.83
460.58,2097.07
461.02,2116.05
461.45,2134.80
461.88,2153.35
462.31,2171.70
462.74,2189.85
463.18,2207.76
463.61,2225.40
464.04,2242.78
464.47,2259.94
464.90,2277.01
465.33,2294.22
465.77,2311.85
466.20,2330.21
466.63,2349.62
467.06,2370.33
467.49,2392.50
467.92,2416.19
468.35,2441.37
468.78,2467.94
469.22,2495.79
469.65,2524.87
470.08,2555.17
470.51,2586.78
470.94,2619.86
471.37,2654.61
471.80,2691.20
472.23,2729.72
472.66,2770.14
473.10,2812.29
473.53,2855.89
473.96,2900.59
474.39,2946.07
474.82,2992.05
475.25,3038.41
475.68,3085.17
476.11,3132.51
476.54,3180.69
476.97,3229.95
477.40,3280.47
477.83,3332.27
478.26,3385.18
478.69,3438.83
479.12,3492.75
479.55,3546.38
479.98,3599.26
480.41,3651.07
480.84,3701.70
481.27,3751.23
481.70,3799.96
482.13,3848.26
482.56,3896.47
482.99,3944.83
483.42,3993.39
483.85,4041.98
484.28,4090.24
484.71,4137.73
485.14,4184.01
485.57,4228.79
486.00,4272.01
486.43,4313.89
486.86,4354.93
487.29,4395.78
487.72,4437.19
488.15,4479.80
488.58,4524.02
489.01,4569.90
489.44,4617.16
489.87,4665.15
490.30,4713.01
490.72,4759.82
491.15,4804.76
491.58,4847.28
492.01,4887.19
492.44,4924.70
492.87,4960.39
493.30,4995.02
493.73,5029.43
494.16,5064.30
494.59,5100.03
495.01,5136.63
495.44,5173.69
495.87,5210.49
496.30,5246.16
496.73,5279.80
497.16,5310.79
497.59,5338.87
498.01,5364.25
498.44,5387.62
498.87,5410.04
499.30,5432.75
499.73,5456.94
500.16,5483.52
500.58,5512.93
501.01,5545.08
501.44,5579.29
501.87,5614.47
502.30,5649.30
502.72,5682.49
503.15,5713.02
503.58,5740.35
504.01,5764.53
504.44,5786.22
504.86,5806.53
505.29,5826.83
505.72,5848.52
506.15,5872.68
506.57,5899.91
507.00,5930.19
507.43,5962.84
507.86,5996.62
508.28,6029.93
508.71,6061.11
509.14,6088.70
509.57,6111.70
509.99,6129.77
510.42,6143.28
510.85,6153.28
511.27,6161.33
511.70,6169.24
512.13,6178.78
512.56,6191.43
512.98,6208.08
513.41,6228.97
513.84,6253.61
514.26,6280.92
514.69,6309.43
515.12,6337.53
515.54,6363.77
515.97,6387.11
516.40,6407.10
516.82,6423.93
517.25,6438.44
517.68,6451.93
518.10,6465.92
518.53,6481.91
518.95,6501.11
519.38,6524.16
519.81,6551.09
520.23,6581.22
520.66,6613.28
521.09,6645.60
521.51,6676.37
521.94,6703.91
522.36,6726.96
522.79,6744.85
523.22,6757.66
523.64,6766.15
524.07,6771.69
524.49,6776.04
524.92,6781.02
525.34,6788.29
525.77,6799.02
526.20,6813.74
526.62,6832.25
527.05,6853.65
527.47,6876.47
527.90,6898.95
528.32,6919.28
528.75,6935.93
529.17,6947.89
529.60,6954.80
530.02,6957.10
530.45,6955.87
530.87,6952.76
531.30,6949.69
531.72,6948.62
532.15,6951.21
532.57,6958.59
533.00,6971.18
533.42,6988.64
533.85,7009.88
534.27,7033.19
534.70,7056.52
535.12,7077.74
535.55,7094.95
535.97,7106.78
536.40,7112.58
536.82,7112.57
537.25,7107.83
537.67,7100.17
538.09,7091.88
538.52,7085.45
538.94,7083.19
539.37,7086.89
539.79,7097.56
540.22,7115.25
540.64,7139.02
541.06,7167.02
541.49,7196.76
541.91,7225.41
542.34,7250.18
542.76,7268.76
543.18,7279.61
543.61,7282.19
544.03,7277.07
544.46,7265.87
544.88,7251.06
545.30,7235.62
545.73,7222.67
546.15,7215.01
546.57,7214.76
547.00,7223.02
547.42,7239.74
547.84,7263.71
548.27,7292.64
548.69,7323.50
549.11,7352.88
549.54,7377.45
549.96,7394.37
550.38,7401.70
550.81,7398.65
551.23,7385.71
551.65,7364.63
552.07,7338.22
552.50,7310.06
552.92,7284.01
553.34,7263.81
553.77,7252.60
554.19,7252.49
554.61,7264.36
555.03,7287.65
555.46,7320.43
555.88,7359.60
556.30,7401.24
556.72,7441.03
557.15,7474.78
557.57,7498.88
557.99,7510.80
558.41,7509.35
558.84,7494.91
559.26,7469.37
559.68,7436.00
560.10,7399.07
560.52,7363.44
560.95,7333.95
561.37,7314.95
561.79,7309.78
562.21,7320.34
562.63,7346.93
563.06,7388.17
563.48,7441.10
563.90,7501.56
564.32,7564.57
564.74,7624.88
565.16,7677.57
565.58,7718.53
566.01,7744.93
566.43,7755.54
566.85,7750.86
567.27,7733.12
567.69,7705.99
568.11,7674.29
568.53,7643.40
568.96,7618.73
569.38,7605.13
569.80,7606.31
570.22,7624.47
570.64,7659.96
571.06,7711.26
571.48,7775.06
571.90,7846.56
572.32,7919.96
572.74,7989.00
573.16,8047.59
573.58,8090.44
574.01,8113.54
574.43,8114.61
574.85,8093.35
575.27,8051.44
575.69,7992.42
576.11,7921.36
576.53,7844.36
576.95,7767.98
577.37,7698.58
577.79,7641.75
578.21,7601.77
578.63,7581.23
579.05,7580.79
579.47,7599.21
579.89,7633.46
580.31,7679.08
580.73,7730.62
581.15,7782.18
581.57,7827.97
581.99,7862.87
582.41,7882.86
582.83,7885.43
583.25,7869.78
583.67,7836.89
584.09,7789.42
584.51,7731.49
584.93,7668.29
585.34,7605.59
585.76,7549.26
586.18,7504.69
586.60,7476.35
587.02,7467.35
587.44,7479.23
587.86,7511.82
588.28,7563.29
588.70,7630.34
589.12,7708.55
589.54,7792.73
589.95,7877.45
590.37,7957.48
590.79,8028.26
591.21,8086.29
591.63,8129.40
592.05,8156.98
592.47,8170.01
592.89,8171.01
593.30,8163.75
593.72,8153.01
594.14,8144.07
594.56,8142.26
594.98,8152.49
595.40,8178.73
595.81,8223.67
596.23,8288.46
596.65,8372.61
597.07,8473.97
597.49,8588.94
597.90,8712.79
598.32,8840.01
598.74,8964.75
599.16,9081.31
599.58,9184.55
599.99,9270.26
600.41,9335.49
600.83,9378.72
601.25,9400.00
601.66,9400.84
602.08,9384.16
602.50,9354.00
602.92,9315.17
603.33,9272.93
603.75,9232.49
604.17,9198.62
604.59,9175.33
605.00,9165.47
605.42,9170.60
605.84,9190.88
606.25,9225.10
606.67,9270.83
607.09,9324.65
607.51,9382.48
607.92,9439.93
608.34,9492.64
608.76,9536.62
609.17,9568.59
609.59,9586.13
610.01,9587.91
610.42,9573.73
610.84,9544.54
611.26,9502.36
611.67,9450.13
612.09,9391.50
612.51,9330.61
612.92,9271.74
613.34,9219.02
613.75,9176.15
614.17,9146.10
614.59,9130.90
615.00,9131.52
615.42,9147.78
615.83,9178.39
616.25,9221.12
616.67,9272.93
617.08,9330.29
617.50,9389.40
617.91,9446.55
618.33,9498.34
618.75,9541.92
619.16,9575.23
619.58,9597.05
619.99,9607.11
620.41,9606.05
620.82,9595.35
621.24,9577.24
621.65,9554.48
622.07,9530.20
622.48,9507.64
622.90,9489.96
623.31,9479.95
623.73,9479.88
624.14,9491.32
624.56,9515.04
624.97,9550.94
625.39,9598.06
625.80,9654.70
626.22,9718.53
626.63,9786.76
627.05,9856.36
627.46,9924.30
627.88,9987.74
628.29,10044.20
628.71,10091.76
629.12,10129.15
629.54,10155.85
629.95,10172.04
630.37,10178.65
630.78,10177.22
631.19,10169.79
631.61,10158.77
632.02,10146.76
632.44,10136.36
632.85,10130.02
633.26,10129.87
633.68,10137.63
634.09,10154.48
634.51,10181.04
634.92,10217.32
635.33,10262.73
635.75,10316.15
636.16,10375.97
636.57,10440.16
636.99,10506.43
637.40,10572.34
637.82,10635.41
638.23,10693.34
638.64,10744.10
639.06,10786.10
639.47,10818.32
639.88,10840.35
640.30,10852.46
640.71,10855.60
641.12,10851.31
641.53,10841.65
641.95,10829.05
642.36,10816.12
642.77,10805.49
643.19,10799.63
643.60,10800.66
644.01,10810.24
644.42,10829.45
644.84,10858.73
645.25,10897.89
645.66,10946.14
646.08,11002.16
646.49,11064.22
646.90,11130.28
647.31,11198.17
647.73,11265.69
648.14,11330.74
648.55,11391.45
648.96,11446.21
649.37,11493.77
649.79,11533.24
650.20,11564.14
650.61,11586.37
651.02,11600.22
651.43,11606.36
651.85,11605.81
652.26,11599.93
652.67,11590.38
653.08,11579.02
653.49,11567.91
653.90,11559.15
654.32,11554.78
654.73,11556.67
655.14,11566.40
655.55,11585.13
655.96,11613.52
656.37,11651.67
656.78,11699.10
657.20,11754.80
657.61,11817.24
658.02,11884.49
658.43,11954.36
658.84,12024.50
659.25,12092.58
659.66,12156.40
660.07,12214.04
660.48,12263.95
660.90,12305.03
661.31,12336.70
661.72,12358.91
662.13,12372.09
662.54,12377.17
662.95,12375.48
663.36,12368.68
663.77,12358.66
664.18,12347.43
664.59,12337.03
665.00,12329.37
665.41,12326.20
665.82,12328.94
666.23,12338.68
666.64,12356.10
667.05,12381.43
667.46,12414.49
667.87,12454.69
668.28,12501.09
668.69,12552.49
669.10,12607.43
669.51,12664.33
669.92,12721.52
670.33,12777.33
670.74,12830.16
671.15,12878.51
671.56,12921.06
671.97,12956.73
672.38,12984.70
672.79,13004.50
673.20,13015.99
673.61,13019.42
674.02,13015.43
674.42,13005.03
674.83,12989.56
675.24,12970.63
675.65,12950.06
676.06,12929.81
676.47,12911.81
676.88,12897.94
677.29,12889.86
677.70,12888.95
678.11,12896.21
678.51,12912.22
678.92,12937.03
679.33,12970.26
679.74,13011.03
680.15,13058.06
680.56,13109.78
680.97,13164.37
681.37,13219.92
681.78,13274.56
682.19,13326.50
682.60,13374.21
683.01,13416.37
683.42,13452.01
683.82,13480.46
684.23,13501.35
684.64,13514.60
685.05,13520.40
685.45,13519.18
685.86,13511.58
686.27,13498.46
686.68,13480.88
687.09,13460.05
687.49,13437.40
687.90,13414.45
688.31,13392.84
688.72,13374.25
689.12,13360.29
689.53,13352.47
689.94,13352.03
690.35,13359.93
690.75,13376.69
691.16,13402.39
691.57,13436.63
691.97,13478.50
692.38,13526.70
692.79,13579.56
693.20,13635.20
693.60,13691.61
694.01,13746.84
694.42,13799.10
694.82,13846.85
695.23,13888.88
695.64,13924.37
696.04,13952.84
696.45,13974.12
696.86,13988.33
697.26,13995.78
697.67,13996.91
698.07,13992.27
698.48,13982.51
698.89,13968.32
699.29,13950.52
699.70,13930.06
700.11,13908.00
700.51,13885.58
700.92,13864.15
701.32,13845.11
701.73,13829.91
702.14,13819.85
702.54,13816.06
702.95,13819.40
703.35,13830.33
703.76,13848.95
704.16,13874.95
704.57,13907.66
704.97,13946.12
705.38,13989.16
705.79,14035.48
706.19,14083.76
706.60,14132.66
707.00,14180.95
707.41,14227.46
707.81,14271.08
708.22,14310.79
708.62,14345.66
709.03,14374.80
709.43,14397.44
709.84,14412.95
710.24,14420.86
710.65,14420.98
711.05,14413.41
711.46,14398.59
711.86,14377.34
712.27,14350.85
712.67,14320.62
713.07,14288.41
713.48,14256.16
713.88,14225.84
714.29,14199.37
714.69,14178.45
715.10,14164.53
715.50,14158.66
715.90,14161.50
716.31,14173.24
716.71,14193.68
717.12,14222.21
717.52,14257.91
717.92,14299.60
718.33,14345.92
718.73,14395.39
719.14,14446.49
719.54,14497.67
719.94,14547.46
720.35,14594.43
720.75,14637.25
721.15,14674.74
721.56,14705.83
721.96,14729.68
722.36,14745.63
722.77,14753.27
723.17,14752.49
723.57,14743.42
723.98,14726.49
724.38,14702.42
724.78,14672.14
725.19,14636.80
725.59,14597.69
725.99,14556.25
726.39,14513.93
726.80,14472.25
727.20,14432.70
727.60,14396.70
728.00,14365.59
728.41,14340.58
728.81,14322.70
729.21,14312.76
729.61,14311.34
730.02,14318.73
730.42,14334.92
730.82,14359.58
731.22,14392.11
731.63,14431.58
732.03,14476.82
732.43,14526.45
732.83,14578.90
733.23,14632.52
733.64,14685.58
734.04,14736.37
734.44,14783.26
734.84,14824.73
735.24,14859.41
735.64,14886.11
736.05,14903.87
736.45,14911.93
736.85,14909.77
737.25,14897.12
737.65,14874.00
738.05,14840.72
738.45,14797.92
738.86,14746.59
739.26,14688.06
739.66,14623.98
740.06,14556.29
740.46,14487.10
740.86,14418.63
741.26,14353.07
741.66,14292.51
742.06,14238.78
742.46,14193.43
742.87,14157.66
743.27,14132.27
743.67,14117.71
744.07,14114.13
744.47,14121.35
744.87,14138.97
745.27,14166.41
745.67,14202.89
746.07,14247.51
746.47,14299.24
746.87,14356.91
747.27,14419.29
747.67,14485.08
748.07,14552.95
748.47,14621.60
748.87,14689.83
749.27,14756.52
749.67,14820.74
750.07,14881.70
750.47,14938.75
750.87,14991.37
751.27,15039.14
751.67,15081.67
752.07,15118.59
752.47,15149.54
752.87,15174.18
753.27,15192.17
753.66,15203.24
754.06,15207.23
754.46,15204.13
754.86,15194.10
755.26,15177.58
755.66,15155.20
756.06,15127.87
756.46,15096.73
756.86,15063.09
757.26,15028.38
757.65,14994.04
758.05,14961.48
758.45,14931.90
758.85,14906.26
759.25,14885.18
759.65,14868.88
760.05,14857.19
760.44,14849.56
760.84,14845.09
761.24,14842.67
761.64,14841.00
762.04,14838.76
762.44,14834.62
762.83,14827.40
763.23,14816.02
763.63,14799.62
764.03,14777.48
764.43,14749.04
764.82,14713.89
765.22,14671.71
765.62,14622.30
766.02,14565.51
766.41,14501.32
766.81,14429.76
767.21,14351.02
767.61,14265.43
768.00,14173.46
768.40,14075.80
768.80,13973.31
769.20,13867.05
769.59,13758.27
769.99,13648.35
770.39,13538.80
770.79,13431.17
771.18,13327.04
771.58,13227.94
771.98,13135.33
772.37,13050.52
772.77,12974.68
773.17,12908.76
773.56,12853.51
773.96,12809.43
774.36,12776.74
774.75,12755.34
775.15,12744.83
775.55,12744.48
775.94,12753.23
776.34,12769.71
776.73,12792.34
777.13,12819.34
777.53,12848.85
777.92,12879.01
778.32,12908.04
778.72,12934.30
779.11,12956.37
779.51,12973.00
779.90,12983.19
780.30,12986.10
780.69,12981.07
781.09,12967.57
781.49,12945.19
781.88,12913.64
782.28,12872.77
782.67,12822.59
783.07,12763.29
783.46,12695.32
783.86,12619.37
784.25,12536.41
784.65,12447.66
785.04,12354.60
785.44,12258.85
785.83,12162.18
786.23,12066.39
786.62,11973.25
787.02,11884.41
787.41,11801.37
787.81,11725.38
788.20,11657.44
788.60,11598.26
788.99,11548.27
789.39,11507.61
789.78,11476.17
790.18,11453.61
790.57,11439.38
790.97,11432.78
791.36,11432.98
791.75,11439.07
792.15,11450.09
792.54,11465.05
792.94,11483.00
793.33,11502.99
793.72,11524.11
794.12,11545.53
794.51,11566.44
794.91,11586.07
795.30,11603.69
795.69,11618.58
796.09,11630.01
796.48,11637.28
796.87,11639.70
797.27,11636.57
797.66,11627.27
798.05,11611.22
798.45,11587.90
798.84,11556.93
799.23,11518.00
799.63,11470.99
800.02,11415.91
800.41,11352.98
800.81,11282.65
801.20,11205.58
801.59,11122.71
801.99,11035.26
802.38,10944.63
802.77,10852.48
803.16,10760.57
803.56,10670.73
803.95,10584.75
804.34,10504.31
804.73,10430.85
805.13,10365.58
805.52,10309.37
805.91,10262.73
806.30,10225.86
806.69,10198.65
807.09,10180.71
807.48,10171.43
807.87,10170.03
808.26,10175.62
808.66,10187.22
809.05,10203.83
809.44,10224.40
809.83,10247.89
810.22,10273.25
810.61,10299.44
811.01,10325.44
811.40,10350.23
811.79,10372.85
812.18,10392.42
812.57,10408.12
812.96,10419.23
813.35,10425.19
813.75,10425.51
814.14,10419.85
814.53,10407.93
814.92,10389.60
815.31,10364.72
815.70,10333.25
816.09,10295.14
816.48,10250.44
816.87,10199.23
817.26,10141.67
817.65,10078.03
818.04,10008.72
818.44,9934.27
818.83,9855.38
819.22,9772.91
819.61,9687.85
820.00,9601.37
820.39,9514.71
820.78,9429.19
821.17,9346.17
821.56,9266.98
821.95,9192.90
822.34,9125.08
822.73,9064.55
823.12,9012.12
823.51,8968.42
823.90,8933.82
824.29,8908.46
824.68,8892.23
825.07,8884.78
825.46,8885.52
825.85,8893.67
826.24,8908.26
826.62,8928.22
827.01,8952.36
827.40,8979.48
827.79,9008.36
828.18,9037.84
828.57,9066.86
828.96,9094.43
829.35,9119.71
829.74,9141.93
830.13,9160.48
830.52,9174.80
830.90,9184.44
831.29,9189.03
831.68,9188.29
832.07,9181.99
832.46,9170.01
832.85,9152.31
833.24,9128.92
833.62,9099.97
834.01,9065.65
834.40,9026.17
834.79,8981.81
835.18,8932.86
835.57,8879.64
835.95,8822.49
836.34,8761.81
836.73,8698.05
837.12,8631.78
837.51,8563.63
837.89,8494.38
838.28,8424.88
838.67,8356.08
839.06,8288.96
839.44,8224.52
839.83,8163.72
840.22,8107.44
840.61,8056.47
840.99,8011.45
841.38,7972.87
841.77,7941.05
842.16,7916.14
842.54,7898.10
842.93,7886.76
843.32,7881.76
843.70,7882.64
844.09,7888.83
844.48,7899.67
844.86,7914.42
845.25,7932.34
845.64,7952.63
846.02,7974.49
846.41,7997.12
846.80,8019.75
847.18,8041.60
847.57,8061.97
847.96,8080.19
848.34,8095.69
848.73,8107.95
849.12,8116.60
849.50,8121.36
849.89,8122.06
850.27,8118.66
850.66,8111.18
851.05,8099.76
851.43,8084.60
851.82,8065.91
852.20,8043.95
852.59,8018.98
852.97,7991.22
853.36,7960.87
853.75,7928.12
854.13,7893.09
854.52,7855.91
854.90,7816.67
855.29,7775.50
855.67,7732.56
856.06,7688.05
856.44,7642.23
856.83,7595.47
857.21,7548.18
857.60,7500.86
857.98,7454.10
858.37,7408.49
858.75,7364.68
859.14,7323.31
859.52,7284.98
859.91,7250.24
860.29,7219.57
860.68,7193.33
861.06,7171.75
861.44,7154.97
861.83,7142.95
862.21,7135.59
862.60,7132.64
862.98,7133.82
863.37,7138.74
863.75,7147.01
864.13,7158.20
864.52,7171.86
864.90,7187.53
865.29,7204.76
865.67,7223.07
866.05,7242.01
866.44,7261.12
866.82,7279.94
867.20,7298.05
867.59,7315.02
867.97,7330.44
868.35,7343.94
868.74,7355.15
869.12,7363.72
869.50,7369.36
869.89,7371.79
870.27,7370.84
870.65,7366.36
871.04,7358.32
871.42,7346.79
871.80,7331.91
872.19,7313.91
872.57,7293.09
872.95,7269.78
873.33,7244.27
873.72,7216.89
874.10,7187.89
874.48,7157.51
874.86,7125.94
875.25,7093.40
875.63,7060.14
876.01,7026.46
876.39,6992.78
876.77,6959.56
877.16,6927.39
877.54,6896.88
877.92,6868.70
878.30,6843.49
878.68,6821.84
879.07,6804.31
879.45,6791.35
879.83,6783.37
880.21,6780.72
880.59,6783.72
880.97,6792.66
881.36,6807.79
881.74,6829.34
882.12,6857.50
882.50,6892.39
882.88,6934.03
883.26,6982.33
883.64,7037.10
884.02,7098.03
884.41,7164.75
884.79,7236.77
885.17,7313.55
885.55,7394.51
885.93,7479.03
886.31,7566.41
886.69,7655.93
887.07,7746.78
887.45,7838.11
887.83,7929.03
888.21,8018.60
888.59,8105.88
888.97,8189.96
889.35,8269.94
889.73,8345.04
890.11,8414.50
890.49,8477.66
890.87,8533.92
891.25,8582.73
891.63,8623.57
892.01,8655.95
892.39,8679.42
892.77,8693.55
893.15,8697.97
893.53,8692.36
893.91,8676.53
894.29,8650.37
894.67,8613.93
895.05,8567.44
895.43,8511.26
895.81,8445.92
896.19,8372.11
896.57,8290.64
896.95,8202.42
897.32,8108.44
897.70,8009.74
898.08,7907.34
898.46,7802.27
898.84,7695.52
899.22,7587.99
899.60,7480.52
899.98,7373.89
900.35,7268.77
900.73,7165.75
901.11,7065.36
901.49,6968.05
901.87,6874.19
902.25,6784.09
902.63,6698.00
903.00,6616.09
903.38,6538.46
903.76,6465.14
904.14,6396.07
904.52,6331.14
904.89,6270.15
905.27,6212.87
905.65,6159.02
906.03,6108.34
906.40,6060.54
906.78,6015.39
907.16,5972.68
907.54,5932.25
907.91,5893.98
908.29,5857.80
908.67,5823.62
909.05,5791.37
909.42,5760.94
909.80,5732.19
910.18,5704.90
910.55,5678.84
910.93,5653.71
911.31,5629.21
911.68,5604.99
912.06,5580.73
912.44,5556.14
912.82,5530.93
913.19,5504.88
913.57,5477.80
913.94,5449.54
914.32,5420.02
914.70,5389.19
915.07,5357.05
915.45,5323.65
915.83,5289.06
916.20,5253.43
916.58,5216.88
916.95,5179.60
917.33,5141.77
917.71,5103.54
918.08,5065.12
918.46,5026.66
918.83,4988.32
919.21,4950.29
919.58,4912.70
919.96,4875.73
920.34,4839.53
920.71,4804.25
921.09,4770.02
921.46,4736.95
921.84,4705.12
922.21,4674.58
922.59,4645.33
922.96,4617.31
923.34,4590.43
923.71,4564.54
924.09,4539.43
924.46,4514.90
924.84,4490.70
925.21,4466.62
925.59,4442.48
925.96,4418.17
926.34,4393.64
926.71,4368.97
927.08,4344.31
927.46,4319.89
927.83,4295.98
928.21,4272.90
928.58,4250.91
928.96,4230.26
929.33,4211.10
929.70,4193.50
930.08,4177.46
930.45,4162.91
930.83,4149.69
931.20,4137.62
931.57,4126.51
931.95,4116.14
932.32,4106.29
932.69,4096.77
933.07,4087.35
933.44,4077.83
933.81,4068.00
934.19,4057.64
934.56,4046.54
934.93,4034.51
935.31,4021.36
935.68,4006.94
936.05,3991.16
936.43,3973.96
936.80,3955.31
937.17,3935.27
937.54,3913.91
937.92,3891.35
938.29,3867.70
938.66,3843.09
939.03,3817.65
939.41,3791.45
939.78,3764.58
940.15,3737.06
940.52,3708.92
940.90,3680.19
941.27,3650.91
941.64,3621.18
942.01,3591.12
942.38,3560.95
942.76,3530.91
943.13,3501.29
943.50,3472.39
943.87,3444.50
944.24,3417.85
944.61,3392.58
944.99,3368.78
945.36,3346.42
945.73,3325.40
946.10,3305.54
946.47,3286.62
946.84,3268.39
947.21,3250.59
947.59,3232.98
947.96,3215.36
948.33,3197.57
948.70,3179.51
949.07,3161.18
949.44,3142.60
949.81,3123.91
950.18,3105.26
950.55,3086.84
950.92,3068.85
951.29,3051.44
951.66,3034.75
952.03,3018.81
952.41,3003.59
952.78,2989.00
953.15,2974.89
953.52,2961.08
953.89,2947.37
954.26,2933.59
954.63,2919.60
955.00,2905.28
955.37,2890.59
955.74,2875.52
956.11,2860.11
956.48,2844.44
956.84,2828.61
957.21,2812.71
957.58,2796.86
957.95,2781.14
958.32,2765.59
958.69,2750.25
959.06,2735.08
959.43,2720.04
959.80,2705.03
960.17,2689.95
960.54,2674.70
960.91,2659.18
961.28,2643.31
961.64,2627.07
962.01,2610.45
962.38,2593.47
962.75,2576.20
963.12,2558.69
963.49,2541.00
963.86,2523.18
964.22,2505.27
964.59,2487.26
964.96,2469.13
965.33,2450.82
965.70,2432.28
966.07,2413.44
966.43,2394.25
966.80,2374.68
967.17,2354.74
967.54,2334.49
967.91,2314.02
968.27,2293.47
968.64,2272.99
969.01,2252.76
969.38,2232.92
969.74,2213.61
970.11,2194.92
970.48,2176.85
970.85,2159.39
971.21,2142.45
971.58,2125.90
971.95,2109.61
972.31,2093.47
972.68,2077.37
973.05,2061.29
973.42,2045.23
973.78,2029.27
974.15,2013.54
974.52,1998.18
974.88,1983.34
975.25,1969.17
975.62,1955.75
975.98,1943.14
976.35,1931.33
976.72,1920.24
977.08,1909.79
977.45,1899.80
977.81,1890.11
978.18,1880.55
978.55,1870.95
978.91,1861.16
979.28,1851.08
979.64,1840.64
980.01,1829.83
980.38,1818.67
980.74,1807.21
981.11,1795.56
981.47,1783.81
981.84,1772.06
982.20,1760.37
982.57,1748.81
982.93,1737.37
983.30,1726.06
983.66,1714.83
984.03,1703.66
984.39,1692.50
984.76,1681.34
985.12,1670.18
985.49,1659.06
985.85,1648.00
986.22,1637.06
986.58,1626.24
986.95,1615.56
987.31,1604.97
987.68,1594.42
988.04,1583.79
988.41,1572.96
988.77,1561.80
989.13,1550.19
989.50,1538.06
989.86,1525.36
990.23,1512.11
990.59,1498.37
990.96,1484.26
991.32,1469.93
991.68,1455.56
992.05,1441.32
992.41,1427.37
992.77,1413.86
993.14,1400.88
993.50,1388.49
993.86,1376.73
994.23,1365.59
994.59,1355.05
994.95,1345.06
995.32,1335.59
995.68,1326.60
996.04,1318.02
996.41,1309.83
996.77,1301.96
997.13,1294.37
997.50,1286.97
997.86,1279.67
998.22,1272.36
998.58,1264.92
998.95,1257.22
999.31,1249.17
999.67,1240.71
1000.03,1231.81
1000.40,1222.52
1000.76,1212.95
1001.12,1203.24
1001.48,1193.59
1001.84,1184.17
1002.21,1175.15
1002.57,1166.66
1002.93,1158.77
1003.29,1151.45
1003.65,1144.65
1004.02,1138.25
1004.38,1132.10
1004.74,1126.06
1005.10,1119.98
1005.46,1113.77
1005.82,1107.38
1006.19,1100.78
1006.55,1094.01
1006.91,1087.11
1007.27,1080.14
1007.63,1073.16
1007.99,1066.22
1008.35,1059.35
1008.71,1052.56
1009.07,1045.84
1009.43,1039.18
1009.80,1032.58
1010.16,1026.01
1010.52,1019.48
1010.88,1012.99
1011.24,1006.56
1011.60,1000.19
1011.96,993.88
1012.32,987.65
1012.68,981.47
1013.04,975.33
1013.40,969.20
1013.76,963.06
1014.12,956.89
1014.48,950.66
1014.84,944.38
1015.20,938.05
1015.56,931.68
1015.92,925.29
1016.28,918.92
1016.64,912.58
1017.00,906.32
1017.36,900.15
1017.72,894.13
1018.07,888.27
1018.43,882.62
1018.79,877.21
1019.15,872.07
1019.51,867.21
1019.87,862.64
1020.23,858.36
1020.59,854.35
1020.95,850.56
1021.31,846.96
1021.66,843.47
1022.02,840.03
1022.38,836.58
1022.74,833.06
1023.10,829.43
1023.46,825.64
1023.81,821.67
1024.17,817.49
1024.53,813.07
1024.89,808.36
1025.25,803.30
1025.60,797.78
1025.96,791.70
1026.32,784.96
1026.68,777.50
1027.04,769.14
1027.39,759.21
1027.75,748.90
1028.11,738.65
1028.47,728.89
1028.82,714.36
1029.18,678.77
1029.54,706.73
1029.90,706.73
1030.25,706.73
