wavelength,counts
188.65,97.29
189.10,97.29
189.56,97.29
190.01,97.29
190.47,97.29
190.92,116.42
191.37,125.07
191.83,135.35
192.28,147.21
192.74,160.54
193.19,175.15
193.64,190.76
194.10,207.52
194.55,225.29
195.01,243.90
195.46,263.21
195.91,283.08
196.37,303.35
196.82,323.88
197.27,344.49
197.73,364.99
198.18,385.18
198.63,404.83
199.09,423.73
199.54,441.68
199.99,458.50
200.45,474.04
200.90,488.22
201.35,501.00
201.81,512.37
202.26,522.37
202.71,531.06
203.17,538.52
203.62,544.83
204.07,550.06
204.53,554.29
204.98,557.59
205.43,560.04
205.89,561.71
206.34,562.69
206.79,563.08
207.25,562.97
207.70,562.47
208.15,561.67
208.60,560.68
209.06,559.54
209.51,558.33
209.96,557.08
210.41,555.81
210.87,554.55
211.32,553.32
211.77,552.15
212.23,551.09
212.68,550.20
213.13,549.52
213.58,549.10
214.04,548.96
214.49,549.12
214.94,549.52
215.39,550.11
215.84,550.78
216.30,551.42
216.75,551.91
217.20,552.16
217.65,552.08
218.11,551.65
218.56,550.88
219.01,549.82
219.46,548.58
219.91,547.27
220.37,546.04
220.82,545.01
221.27,544.30
221.72,543.96
222.17,544.04
222.63,544.49
223.08,545.27
223.53,546.25
223.98,547.33
224.43,548.39
224.88,549.32
225.34,550.07
225.79,550.61
226.24,550.97
226.69,551.20
227.14,551.39
227.59,551.62
228.04,551.98
228.50,552.52
228.95,553.29
229.40,554.27
229.85,555.44
230.30,556.74
230.75,558.10
231.20,559.44
231.66,560.70
232.11,561.80
232.56,562.68
233.01,563.30
233.46,563.61
233.91,563.58
234.36,563.19
234.81,562.46
235.26,561.41
235.71,560.08
236.17,558.55
236.62,556.88
237.07,555.16
237.52,553.47
237.97,551.86
238.42,550.38
238.87,549.05
239.32,547.90
239.77,546.91
240.22,546.10
240.67,545.47
241.12,545.04
241.57,544.83
242.02,544.86
242.47,545.13
242.92,545.66
243.37,546.42
243.82,547.37
244.27,548.47
244.72,549.63
245.18,550.80
245.63,551.88
246.08,552.81
246.53,553.55
246.98,554.07
247.43,554.37
247.88,554.47
248.33,554.40
248.78,554.21
249.23,553.96
249.68,553.69
250.12,553.45
250.57,553.27
251.02,553.18
251.47,553.22
251.92,553.41
252.37,553.78
252.82,554.37
253.27,555.18
253.72,556.24
254.17,557.52
254.62,558.98
255.07,560.58
255.52,562.24
255.97,563.87
256.42,565.38
256.87,566.71
257.32,567.79
257.77,568.60
258.22,569.13
258.66,569.38
259.11,569.39
259.56,569.16
260.01,568.72
260.46,568.07
260.91,567.22
261.36,566.17
261.81,564.93
262.26,563.51
262.71,561.97
263.15,560.35
263.60,558.73
264.05,557.21
264.50,555.84
264.95,554.72
265.40,553.87
265.85,553.31
266.30,553.03
266.74,552.97
267.19,553.07
267.64,553.25
268.09,553.42
268.54,553.51
268.99,553.45
269.43,553.20
269.88,552.74
270.33,552.08
270.78,551.23
271.23,550.22
271.68,549.14
272.12,548.03
272.57,546.99
273.02,546.11
273.47,545.46
273.92,545.12
274.36,545.14
274.81,545.52
275.26,546.23
275.71,547.22
276.16,548.37
276.60,549.56
277.05,550.67
277.50,551.58
277.95,552.19
278.39,552.46
278.84,552.38
279.29,551.99
279.74,551.35
280.19,550.57
280.63,549.75
281.08,548.98
281.53,548.35
281.98,547.92
282.42,547.72
282.87,547.77
283.32,548.06
283.76,548.55
284.21,549.23
284.66,550.04
285.11,550.95
285.55,551.91
286.00,552.89
286.45,553.86
286.89,554.79
287.34,555.68
287.79,556.55
288.23,557.40
288.68,558.30
289.13,559.29
289.58,560.44
290.02,561.83
290.47,563.50
290.92,565.49
291.36,567.81
291.81,570.43
292.26,573.31
292.70,576.36
293.15,579.47
293.60,582.53
294.04,585.43
294.49,588.08
294.93,590.39
295.38,592.29
295.83,593.75
296.27,594.75
296.72,595.26
297.17,595.30
297.61,594.88
298.06,594.03
298.50,592.82
298.95,591.29
299.40,589.53
299.84,587.63
300.29,585.67
300.73,583.74
301.18,581.90
301.63,580.21
302.07,578.68
302.52,577.32
302.96,576.11
303.41,575.03
303.85,574.05
304.30,573.14
304.75,572.29
305.19,571.46
305.64,570.66
306.08,569.89
306.53,569.14
306.97,568.43
307.42,567.77
307.86,567.21
308.31,566.77
308.75,566.50
309.20,566.46
309.65,566.69
310.09,567.19
310.54,567.99
310.98,569.03
311.43,570.26
311.87,571.59
312.32,572.90
312.76,574.10
313.21,575.10
313.65,575.81
314.10,576.19
314.54,576.25
314.99,576.00
315.43,575.50
315.87,574.81
316.32,574.03
316.76,573.26
317.21,572.57
317.65,572.08
318.10,571.86
318.54,571.96
318.99,572.43
319.43,573.27
319.88,574.43
320.32,575.86
320.76,577.46
321.21,579.11
321.65,580.69
322.10,582.09
322.54,583.23
322.99,584.08
323.43,584.62
323.87,584.89
324.32,584.96
324.76,584.91
325.21,584.82
325.65,584.77
326.09,584.81
326.54,584.96
326.98,585.22
327.42,585.54
327.87,585.88
328.31,586.18
328.76,586.37
329.20,586.40
329.64,586.25
330.09,585.90
330.53,585.37
330.97,584.69
331.42,583.94
331.86,583.19
332.30,582.52
332.75,582.02
333.19,581.80
333.63,581.91
334.08,582.41
334.52,583.35
334.96,584.70
335.41,586.46
335.85,588.54
336.29,590.85
336.74,593.26
337.18,595.63
337.62,597.79
338.06,599.58
338.51,600.85
338.95,601.48
339.39,601.37
339.84,600.50
340.28,598.88
340.72,596.60
341.16,593.77
341.61,590.56
342.05,587.16
342.49,583.79
342.93,580.64
343.38,577.88
343.82,575.67
344.26,574.09
344.70,573.21
345.15,573.05
345.59,573.56
346.03,574.69
346.47,576.34
346.92,578.41
347.36,580.75
347.80,583.26
348.24,585.80
348.68,588.24
349.13,590.47
349.57,592.41
350.01,593.96
350.45,595.08
350.89,595.75
351.34,595.95
351.78,595.74
352.22,595.15
352.66,594.28
353.10,593.20
353.54,592.02
353.99,590.82
354.43,589.67
354.87,588.64
355.31,587.76
355.75,587.05
356.19,586.50
356.63,586.10
357.08,585.84
357.52,585.68
357.96,585.60
358.40,585.59
358.84,585.61
359.28,585.67
359.72,585.74
360.16,585.81
360.60,585.89
361.05,585.97
361.49,586.08
361.93,586.21
362.37,586.39
362.81,586.65
363.25,587.00
363.69,587.46
364.13,588.05
364.57,588.79
365.01,589.68
365.45,590.72
365.89,591.92
366.33,593.28
366.78,594.81
367.22,596.50
367.66,598.33
368.10,600.28
368.54,602.32
368.98,604.39
369.42,606.45
369.86,608.42
370.30,610.26
370.74,611.90
371.18,613.31
371.62,614.47
372.06,615.39
372.50,616.10
372.94,616.61
373.38,616.97
373.82,617.21
374.26,617.37
374.70,617.46
375.14,617.49
375.58,617.47
376.02,617.42
376.46,617.33
376.90,617.25
377.34,617.17
377.78,617.15
378.21,617.19
378.65,617.32
379.09,617.56
379.53,617.93
379.97,618.42
380.41,619.06
380.85,619.87
381.29,620.86
381.73,622.09
382.17,623.58
382.61,625.38
383.05,627.48
383.49,629.89
383.93,632.56
384.36,635.42
384.80,638.38
385.24,641.33
385.68,644.16
386.12,646.78
386.56,649.13
387.00,651.17
387.44,652.91
387.87,654.39
388.31,655.66
388.75,656.80
389.19,657.89
389.63,659.01
390.07,660.20
390.51,661.52
390.94,663.00
391.38,664.66
391.82,666.50
392.26,668.52
392.70,670.71
393.14,673.04
393.57,675.50
394.01,678.08
394.45,680.76
394.89,683.53
395.33,686.39
395.76,689.34
396.20,692.41
396.64,695.62
397.08,699.01
397.52,702.63
397.95,706.51
398.39,710.71
398.83,715.28
399.27,720.23
399.70,725.58
400.14,731.32
400.58,737.38
401.02,743.69
401.45,750.11
401.89,756.48
402.33,762.63
402.77,768.38
403.20,773.54
403.64,777.99
404.08,781.63
404.52,784.46
404.95,786.53
405.39,787.98
405.83,789.02
406.26,789.88
406.70,790.86
407.14,792.22
407.58,794.20
408.01,797.01
408.45,800.77
408.89,805.53
409.32,811.26
409.76,817.86
410.20,825.15
410.63,832.92
411.07,840.91
411.51,848.86
411.94,856.53
412.38,863.69
412.82,870.19
413.25,875.96
413.69,880.99
414.12,885.36
414.56,889.25
415.00,892.86
415.43,896.47
415.87,900.31
416.31,904.65
416.74,909.66
417.18,915.46
417.61,922.09
418.05,929.51
418.49,937.60
418.92,946.17
419.36,955.02
419.79,963.93
420.23,972.67
420.67,981.10
421.10,989.11
421.54,996.65
421.97,1003.74
422.41,1010.47
422.84,1016.93
423.28,1023.27
423.71,1029.61
424.15,1036.03
424.59,1042.62
425.02,1049.40
425.46,1056.38
425.89,1063.55
426.33,1070.88
426.76,1078.35
427.20,1085.94
427.63,1093.64
428.07,1101.44
428.50,1109.32
428.94,1117.24
429.37,1125.17
429.81,1133.04
430.24,1140.82
430.68,1148.44
431.11,1155.90
431.55,1163.18
431.98,1170.31
432.42,1177.36
432.85,1184.38
433.28,1191.47
433.72,1198.68
434.15,1206.07
434.59,1213.70
435.02,1221.55
435.46,1229.63
435.89,1237.88
436.33,1246.24
436.76,1254.62
437.19,1262.94
437.63,1271.12
438.06,1279.08
438.50,1286.80
438.93,1294.28
439.37,1301.59
439.80,1308.84
440.23,1316.21
440.67,1323.86
441.10,1331.98
441.53,1340.71
441.97,1350.13
442.40,1360.24
442.84,1370.95
443.27,1382.09
443.70,1393.45
444.14,1404.78
444.57,1415.86
445.00,1426.53
445.44,1436.69
445.87,1446.33
446.30,1455.52
446.74,1464.36
447.17,1473.00
447.60,1481.56
448.04,1490.14
448.47,1498.77
448.90,1507.47
449.34,1516.22
449.77,1524.97
450.20,1533.71
450.64,1542.46
451.07,1551.27
451.50,1560.23
451.93,1569.43
452.37,1579.00
452.80,1589.01
453.23,1599.52
453.67,1610.53
454.10,1622.02
454.53,1633.93
454.96,1646.24
455.40,1658.90
455.83,1671.92
456.26,1685.35
456.69,1699.24
457.13,1713.67
457.56,1728.65
457.99,1744.18
458.42,1760.16
458.86,1776.41
459.29,1792.74
459.72,1808.90
460.15,1824.69
460.58,1839.95
461.02,1854.65
461.45,1868.84
461.88,1882.71
462.31,1896.50
462.74,1910.48
463.18,1924.91
463.61,1939.97
464.04,1955.73
464.47,1972.17
464.90,1989.16
465.33,2006.51
465.77,2024.04
466.20,2041.58
466.63,2059.08
467.06,2076.56
467.49,2094.16
467.92,2112.11
468.35,2130.63
468.78,2149.98
469.22,2170.32
469.65,2191.75
470.08,2214.25
470.51,2237.75
470.94,2262.13
471.37,2287.33
471.80,2313.31
472.23,2340.17
472.66,2368.12
473.10,2397.44
473.53,2428.45
473.96,2461.44
474.39,2496.56
474.82,2533.81
475.25,2572.98
475.68,2613.65
476.11,2655.27
476.54,2697.24
476.97,2739.00
477.40,2780.12
477.83,2820.43
478.26,2859.99
478.69,2899.12
479.12,2938.32
479.55,2978.15
479.98,3019.13
480.41,3061.59
480.84,3105.62
481.27,3150.96
481.70,3197.09
482.13,3243.24
482.56,3288.59
482.99,3332.33
483.42,3373.91
483.85,3413.05
484.28,3449.91
484.71,3484.99
485.14,3519.08
485.57,3553.12
486.00,3588.03
486.43,3624.49
486.86,3662.84
487.29,3702.98
487.72,3744.37
488.15,3786.13
488.58,3827.20
489.01,3866.51
489.44,3903.21
489.87,3936.86
490.30,3967.46
490.72,3995.55
491.15,4022.04
491.58,4048.13
492.01,4075.04
492.44,4103.83
492.87,4135.16
493.30,4169.21
493.73,4205.62
494.16,4243.53
494.59,4281.77
495.01,4319.02
495.44,4354.06
495.87,4385.99
496.30,4414.36
496.73,4439.31
497.16,4461.50
497.59,4482.01
498.01,4502.20
498.44,4523.45
498.87,4546.91
499.30,4573.37
499.73,4603.06
500.16,4635.66
500.58,4670.28
501.01,4705.68
501.44,4740.41
501.87,4773.05
502.30,4802.48
502.72,4828.03
503.15,4849.59
503.58,4867.66
504.01,4883.27
504.44,4897.82
504.86,4912.82
505.29,4929.70
505.72,4949.57
506.15,4972.98
506.57,4999.87
507.00,5029.58
507.43,5060.86
507.86,5092.14
508.28,5121.74
508.71,5148.10
509.14,5170.06
509.57,5187.06
509.99,5199.21
510.42,5207.34
510.85,5212.86
511.27,5217.59
511.70,5223.49
512.13,5232.39
512.56,5245.71
512.98,5264.23
513.41,5288.02
513.84,5316.36
514.26,5347.88
514.69,5380.74
515.12,5412.89
515.54,5442.39
515.97,5467.66
516.40,5487.74
516.82,5502.41
517.25,5512.22
517.68,5518.40
518.10,5522.71
518.53,5527.13
518.95,5533.63
519.38,5543.84
519.81,5558.86
520.23,5579.07
520.66,5604.10
521.09,5632.88
521.51,5663.79
521.94,5694.87
522.36,5724.09
522.79,5749.63
523.22,5770.11
523.64,5784.79
524.07,5793.65
524.49,5797.40
524.92,5797.40
525.34,5795.47
525.77,5793.65
526.20,5793.93
526.62,5798.02
527.05,5807.10
527.47,5821.68
527.90,5841.53
528.32,5865.71
528.75,5892.69
529.17,5920.53
529.60,5947.15
530.02,5970.54
530.45,5989.07
530.87,6001.65
531.30,6007.88
531.72,6008.15
532.15,6003.52
532.57,5995.70
533.00,5986.75
533.42,5978.93
533.85,5974.35
534.27,5974.75
534.70,5981.28
535.12,5994.33
535.55,6013.48
535.97,6037.55
536.40,6064.71
536.82,6092.72
537.25,6119.17
537.67,6141.78
538.09,6158.66
538.52,6168.59
538.94,6171.09
539.37,6166.57
539.79,6156.27
540.22,6142.08
540.64,6126.41
541.06,6111.85
541.49,6100.88
541.91,6095.61
542.34,6097.47
542.76,6107.07
543.18,6124.10
543.61,6147.36
544.03,6174.85
544.46,6204.03
544.88,6232.06
545.30,6256.16
545.73,6273.87
546.15,6283.39
546.57,6283.76
547.00,6275.02
547.42,6258.19
547.84,6235.22
548.27,6208.79
548.69,6182.03
549.11,6158.19
549.54,6140.29
549.96,6130.79
550.38,6131.32
550.81,6142.44
551.23,6163.62
551.65,6193.23
552.07,6228.72
552.50,6266.88
552.92,6304.13
553.34,6336.95
553.77,6362.23
554.19,6377.58
554.61,6381.65
555.03,6374.25
555.46,6356.39
555.88,6330.21
556.30,6298.77
556.72,6265.72
557.15,6234.97
557.57,6210.19
557.99,6194.52
558.41,6190.16
558.84,6198.15
559.26,6218.24
559.68,6248.92
560.10,6287.57
560.52,6330.71
560.95,6374.39
561.37,6414.57
561.79,6447.58
562.21,6470.48
562.63,6481.35
563.06,6479.55
563.48,6465.74
563.90,6441.87
564.32,6410.96
564.74,6376.87
565.16,6343.87
565.58,6316.29
566.01,6298.05
566.43,6292.27
566.85,6300.99
567.27,6324.93
567.69,6363.38
568.11,6414.27
568.53,6474.31
568.96,6539.32
569.38,6604.60
569.80,6665.33
570.22,6717.06
570.64,6756.13
571.06,6779.95
571.48,6787.31
571.90,6778.44
572.32,6754.97
572.74,6719.79
573.16,6676.75
573.58,6630.27
574.01,6584.97
574.43,6545.20
574.85,6514.65
575.27,6496.06
575.69,6490.98
576.11,6499.62
576.53,6520.93
576.95,6552.63
577.37,6591.53
577.79,6633.78
578.21,6675.21
578.63,6711.75
579.05,6739.77
579.47,6756.39
579.89,6759.73
580.31,6749.09
580.73,6724.97
581.15,6689.04
581.57,6644.00
581.99,6593.33
582.41,6541.04
582.83,6491.29
583.25,6448.11
583.67,6415.05
584.09,6394.90
584.51,6389.53
584.93,6399.66
585.34,6424.92
585.76,6463.80
586.18,6513.84
586.60,6571.82
587.02,6634.02
587.44,6696.52
587.86,6755.54
588.28,6807.75
588.70,6850.53
589.12,6882.16
589.54,6902.01
589.95,6910.53
590.37,6909.23
590.79,6900.55
591.21,6887.60
591.63,6873.97
592.05,6863.35
592.47,6859.28
592.89,6864.83
593.30,6882.39
593.72,6913.42
594.14,6958.40
594.56,7016.78
594.98,7087.02
595.40,7166.72
595.81,7252.86
596.23,7341.96
596.65,7430.41
597.07,7514.71
597.49,7591.74
597.90,7658.93
598.32,7714.49
598.74,7757.46
599.16,7787.73
599.58,7806.06
599.99,7813.96
600.41,7813.53
600.83,7807.33
601.25,7798.11
601.66,7788.71
602.08,7781.74
602.50,7779.49
602.92,7783.72
603.33,7795.56
603.75,7815.44
604.17,7843.07
604.59,7877.48
605.00,7917.11
605.42,7959.94
605.84,8003.67
606.25,8045.89
606.67,8084.27
607.09,8116.73
607.51,8141.58
607.92,8157.62
608.34,8164.24
608.76,8161.35
609.17,8149.46
609.59,8129.56
610.01,8103.08
610.42,8071.80
610.84,8037.72
611.26,8002.97
611.67,7969.68
612.09,7939.88
612.51,7915.35
612.92,7897.57
613.34,7887.62
613.75,7886.10
614.17,7893.14
614.59,7908.37
615.00,7930.98
615.42,7959.77
615.83,7993.26
616.25,8029.75
616.67,8067.48
617.08,8104.73
617.50,8139.91
617.91,8171.70
618.33,8199.06
618.75,8221.34
619.16,8238.27
619.58,8249.96
619.99,8256.88
620.41,8259.77
620.82,8259.64
621.24,8257.62
621.65,8254.95
622.07,8252.87
622.48,8252.55
622.90,8255.07
623.31,8261.38
623.73,8272.20
624.14,8288.08
624.56,8309.28
624.97,8335.81
625.39,8367.38
625.80,8403.43
626.22,8443.10
626.63,8485.29
627.05,8528.73
627.46,8572.03
627.88,8613.82
628.29,8652.80
628.71,8687.88
629.12,8718.22
629.54,8743.30
629.95,8762.96
630.37,8777.34
630.78,8786.91
631.19,8792.41
631.61,8794.76
632.02,8795.03
632.44,8794.36
632.85,8793.91
633.26,8794.79
633.68,8798.04
634.09,8804.52
634.51,8814.92
634.92,8829.70
635.33,8849.09
635.75,8873.05
636.16,8901.32
636.57,8933.39
636.99,8968.59
637.40,9006.07
637.82,9044.93
638.23,9084.20
638.64,9122.94
639.06,9160.28
639.47,9195.45
639.88,9227.85
640.30,9257.07
640.71,9282.89
641.12,9305.28
641.53,9324.43
641.95,9340.68
642.36,9354.50
642.77,9366.49
643.19,9377.29
643.60,9387.57
644.01,9398.02
644.42,9409.28
644.84,9421.95
645.25,9436.55
645.66,9453.53
646.08,9473.22
646.49,9495.87
646.90,9521.56
647.31,9550.29
647.73,9581.90
648.14,9616.09
648.55,9652.45
648.96,9690.45
649.37,9729.44
649.79,9768.71
650.20,9807.50
650.61,9845.03
651.02,9880.54
651.43,9913.38
651.85,9942.99
652.26,9968.96
652.67,9991.12
653.08,10009.46
653.49,10024.21
653.90,10035.79
654.32,10044.77
654.73,10051.86
655.14,10057.84
655.55,10063.54
655.96,10069.78
656.37,10077.36
656.78,10087.02
657.20,10099.43
657.61,10115.13
658.02,10134.57
658.43,10158.02
658.84,10185.57
659.25,10217.10
659.66,10252.29
660.07,10290.58
660.48,10331.21
660.90,10373.27
661.31,10415.72
661.72,10457.48
662.13,10497.50
662.54,10534.81
662.95,10568.60
663.36,10598.26
663.77,10623.41
664.18,10643.93
664.59,10659.94
665.00,10671.80
665.41,10680.08
665.82,10685.48
666.23,10688.83
666.64,10690.98
667.05,10692.78
667.46,10695.01
667.87,10698.36
668.28,10703.38
668.69,10710.51
669.10,10720.07
669.51,10732.26
669.92,10747.20
670.33,10764.93
670.74,10785.42
671.15,10808.56
671.56,10834.16
671.97,10861.94
672.38,10891.50
672.79,10922.33
673.20,10953.83
673.61,10985.34
674.02,11016.15
674.42,11045.58
674.83,11072.98
675.24,11097.79
675.65,11119.58
676.06,11138.02
676.47,11152.93
676.88,11164.24
677.29,11172.04
677.70,11176.50
678.11,11177.93
678.51,11176.75
678.92,11173.49
679.33,11168.72
679.74,11163.13
680.15,11157.39
680.56,11152.20
680.97,11148.18
681.37,11145.92
681.78,11145.90
682.19,11148.50
682.60,11153.99
683.01,11162.52
683.42,11174.17
683.82,11188.90
684.23,11206.57
684.64,11226.95
685.05,11249.72
685.45,11274.43
685.86,11300.54
686.27,11327.43
686.68,11354.41
687.09,11380.76
687.49,11405.78
687.90,11428.83
688.31,11449.37
688.72,11467.01
689.12,11481.52
689.53,11492.84
689.94,11501.07
690.35,11506.48
690.75,11509.42
691.16,11510.36
691.57,11509.83
691.97,11508.35
692.38,11506.45
692.79,11504.64
693.20,11503.36
693.60,11502.97
694.01,11503.79
694.42,11506.02
694.82,11509.81
695.23,11515.24
695.64,11522.35
696.04,11531.12
696.45,11541.56
696.86,11553.62
697.26,11567.31
697.67,11582.57
698.07,11599.38
698.48,11617.65
698.89,11637.24
699.29,11657.91
699.70,11679.33
700.11,11701.05
700.51,11722.49
700.92,11742.99
701.32,11761.84
701.73,11778.32
702.14,11791.78
702.54,11801.69
702.95,11807.72
703.35,11809.75
703.76,11807.94
704.16,11802.66
704.57,11794.53
704.97,11784.32
705.38,11772.93
705.79,11761.27
706.19,11750.24
706.60,11740.68
707.00,11733.26
707.41,11728.52
707.81,11726.86
708.22,11728.49
708.62,11733.49
709.03,11741.82
709.43,11753.33
709.84,11767.77
710.24,11784.85
710.65,11804.17
711.05,11825.30
711.46,11847.77
711.86,11871.04
712.27,11894.53
712.67,11917.68
713.07,11939.88
713.48,11960.56
713.88,11979.19
714.29,11995.28
714.69,12008.46
715.10,12018.41
715.50,12024.95
715.90,12027.98
716.31,12027.52
716.71,12023.67
717.12,12016.64
717.52,12006.70
717.92,11994.23
718.33,11979.67
718.73,11963.57
719.14,11946.54
719.54,11929.25
719.94,11912.44
720.35,11896.82
720.75,11883.11
721.15,11871.92
721.56,11863.75
721.96,11858.94
722.36,11857.65
722.77,11859.86
723.17,11865.42
723.57,11874.03
723.98,11885.34
724.38,11898.95
724.78,11914.48
725.19,11931.56
725.59,11949.83
725.99,11968.98
726.39,11988.65
726.80,12008.45
727.20,12027.94
727.60,12046.59
728.00,12063.84
728.41,12079.05
728.81,12091.62
729.21,12101.00
729.61,12106.75
730.02,12108.56
730.42,12106.32
730.82,12100.08
731.22,12090.07
731.63,12076.67
732.03,12060.31
732.43,12041.51
732.83,12020.77
733.23,11998.54
733.64,11975.28
734.04,11951.37
734.44,11927.21
734.84,11903.20
735.24,11879.79
735.64,11857.47
736.05,11836.79
736.45,11818.31
736.85,11802.54
737.25,11789.95
737.65,11780.85
738.05,11775.39
738.45,11773.50
738.86,11774.95
739.26,11779.29
739.66,11785.97
740.06,11794.34
740.46,11803.74
740.86,11813.51
741.26,11823.04
741.66,11831.82
742.06,11839.36
742.46,11845.26
742.87,11849.13
743.27,11850.60
743.67,11849.34
744.07,11845.00
744.47,11837.30
744.87,11826.03
745.27,11811.09
745.67,11792.55
746.07,11770.65
746.47,11745.83
746.87,11718.75
747.27,11690.24
747.67,11661.27
748.07,11632.93
748.47,11606.35
748.87,11582.67
749.27,11562.94
749.67,11548.12
750.07,11539.02
750.47,11536.22
750.87,11540.09
751.27,11550.74
751.67,11568.00
752.07,11591.43
752.47,11620.29
752.87,11653.65
753.27,11690.35
753.66,11729.09
754.06,11768.52
754.46,11807.30
754.86,11844.17
755.26,11878.00
755.66,11907.85
756.06,11932.97
756.46,11952.80
756.86,11966.93
757.26,11975.06
757.65,11976.99
758.05,11972.53
758.45,11961.54
758.85,11943.91
759.25,11919.57
759.65,11888.52
760.05,11850.89
760.44,11806.95
760.84,11757.12
761.24,11701.98
761.64,11642.26
762.04,11578.80
762.44,11512.54
762.83,11444.42
763.23,11375.42
763.63,11306.42
764.03,11238.30
764.43,11171.79
764.82,11107.57
765.22,11046.18
765.62,10988.10
766.02,10933.67
766.41,10883.18
766.81,10836.79
767.21,10794.61
767.61,10756.64
768.00,10722.81
768.40,10692.95
768.80,10666.83
769.20,10644.11
769.59,10624.39
769.99,10607.20
770.39,10592.04
770.79,10578.35
771.18,10565.58
771.58,10553.15
771.98,10540.52
772.37,10527.17
772.77,10512.63
773.17,10496.46
773.56,10478.30
773.96,10457.89
774.36,10435.01
774.75,10409.55
775.15,10381.49
775.55,10350.84
775.94,10317.69
776.34,10282.16
776.73,10244.36
777.13,10204.41
777.53,10162.45
777.92,10118.60
778.32,10073.03
778.72,10025.99
779.11,9977.78
779.51,9928.82
779.90,9879.63
780.30,9830.85
780.69,9783.15
781.09,9737.24
781.49,9693.82
781.88,9653.49
782.28,9616.76
782.67,9583.97
783.07,9555.32
783.46,9530.81
783.86,9510.30
784.25,9493.51
784.65,9480.04
785.04,9469.38
785.44,9461.01
785.83,9454.32
786.23,9448.72
786.62,9443.64
787.02,9438.54
787.41,9432.93
787.81,9426.39
788.20,9418.61
788.60,9409.32
788.99,9398.35
789.39,9385.58
789.78,9370.95
790.18,9354.41
790.57,9335.91
790.97,9315.42
791.36,9292.89
791.75,9268.28
792.15,9241.57
792.54,9212.74
792.94,9181.82
793.33,9148.88
793.72,9114.00
794.12,9077.34
794.51,9039.04
794.91,8999.31
795.30,8958.36
795.69,8916.44
796.09,8873.86
796.48,8830.95
796.87,8788.10
797.27,8745.77
797.66,8704.44
798.05,8664.62
798.45,8626.82
798.84,8591.49
799.23,8559.05
799.63,8529.80
800.02,8503.93
800.41,8481.53
800.81,8462.57
801.20,8446.91
801.59,8434.34
801.99,8424.58
802.38,8417.32
802.77,8412.19
803.16,8408.82
803.56,8406.81
803.95,8405.75
804.34,8405.19
804.73,8404.70
805.13,8403.84
805.52,8402.18
805.91,8399.32
806.30,8394.91
806.69,8388.64
807.09,8380.29
807.48,8369.68
807.87,8356.72
808.26,8341.34
808.66,8323.55
809.05,8303.36
809.44,8280.81
809.83,8255.92
810.22,8228.69
810.61,8199.10
811.01,8167.11
811.40,8132.66
811.79,8095.71
812.18,8056.24
812.57,8014.34
812.96,7970.17
813.35,7924.06
813.75,7876.47
814.14,7827.99
814.53,7779.32
814.92,7731.24
815.31,7684.49
815.70,7639.79
816.09,7597.71
816.48,7558.69
816.87,7522.99
817.26,7490.68
817.65,7461.73
818.04,7435.95
818.44,7413.14
818.83,7393.04
819.22,7375.40
819.61,7360.01
820.00,7346.64
820.39,7335.12
820.78,7325.26
821.17,7316.86
821.56,7309.72
821.95,7303.63
822.34,7298.38
822.73,7293.76
823.12,7289.55
823.51,7285.57
823.90,7281.64
824.29,7277.59
824.68,7273.23
825.07,7268.36
825.46,7262.74
825.85,7256.11
826.24,7248.18
826.62,7238.66
827.01,7227.25
827.40,7213.66
827.79,7197.63
828.18,7178.94
828.57,7157.40
828.96,7132.88
829.35,7105.26
829.74,7074.52
830.13,7040.69
830.52,7003.88
830.90,6964.33
831.29,6922.37
831.68,6878.46
832.07,6833.19
832.46,6787.20
832.85,6741.23
833.24,6695.99
833.62,6652.19
834.01,6610.48
834.40,6571.41
834.79,6535.42
835.18,6502.85
835.57,6473.93
835.95,6448.80
836.34,6427.50
836.73,6410.00
837.12,6396.22
837.51,6385.99
837.89,6379.10
838.28,6375.29
838.67,6374.26
839.06,6375.70
839.44,6379.29
839.83,6384.72
840.22,6391.68
840.61,6399.90
840.99,6409.10
841.38,6419.01
841.77,6429.34
842.16,6439.76
842.54,6449.96
842.93,6459.58
843.32,6468.30
843.70,6475.78
844.09,6481.73
844.48,6485.90
844.86,6488.07
845.25,6488.06
845.64,6485.72
846.02,6480.90
846.41,6473.47
846.80,6463.31
847.18,6450.33
847.57,6434.45
847.96,6415.64
848.34,6393.94
848.73,6369.46
849.12,6342.39
849.50,6313.01
849.89,6281.66
850.27,6248.77
850.66,6214.79
851.05,6180.20
851.43,6145.47
851.82,6111.06
852.20,6077.36
852.59,6044.75
852.97,6013.53
853.36,5983.93
853.75,5956.18
854.13,5930.44
854.52,5906.86
854.90,5885.56
855.29,5866.66
855.67,5850.26
856.06,5836.46
856.44,5825.34
856.83,5816.94
857.21,5811.31
857.60,5808.47
857.98,5808.40
858.37,5811.10
858.75,5816.47
859.14,5824.42
859.52,5834.75
859.91,5847.20
860.29,5861.41
860.68,5876.91
861.06,5893.19
861.44,5909.67
861.83,5925.74
862.21,5940.86
862.60,5954.55
862.98,5966.43
863.37,5976.25
863.75,5983.86
864.13,5989.25
864.52,5992.44
864.90,5993.51
865.29,5992.54
865.67,5989.60
866.05,5984.72
866.44,5977.92
866.82,5969.19
867.20,5958.52
867.59,5945.91
867.97,5931.39
868.35,5915.00
868.74,5896.82
869.12,5876.94
869.50,5855.47
869.89,5832.54
870.27,5808.30
870.65,5782.95
871.04,5756.72
871.42,5729.90
871.80,5702.86
872.19,5676.03
872.57,5649.88
872.95,5624.89
873.33,5601.52
873.72,5580.21
874.10,5561.30
874.48,5545.02
874.86,5531.52
875.25,5520.87
875.63,5513.05
876.01,5508.03
876.39,5505.73
876.77,5506.12
877.16,5509.14
877.54,5514.78
877.92,5523.05
878.30,5533.95
878.68,5547.48
879.07,5563.63
879.45,5582.39
879.83,5603.75
880.21,5627.68
880.59,5654.17
880.97,5683.21
881.36,5714.77
881.74,5748.82
882.12,5785.27
882.50,5824.01
882.88,5864.85
883.26,5907.56
883.64,5951.86
884.02,5997.45
884.41,6044.01
884.79,6091.24
885.17,6138.85
885.55,6186.56
885.93,6234.11
886.31,6281.23
886.69,6327.61
887.07,6372.89
887.45,6416.64
887.83,6458.39
888.21,6497.59
888.59,6533.67
888.97,6566.10
889.35,6594.39
889.73,6618.16
890.11,6637.15
890.49,6651.27
890.87,6660.56
891.25,6665.16
891.63,6665.33
892.01,6661.32
892.39,6653.41
892.77,6641.80
893.15,6626.61
893.53,6607.91
893.91,6585.64
894.29,6559.74
894.67,6530.11
895.05,6496.69
895.43,6459.50
895.81,6418.66
896.19,6374.41
896.57,6327.13
896.95,6277.33
897.32,6225.60
897.70,6172.58
898.08,6118.92
898.46,6065.25
898.84,6012.09
899.22,5959.88
899.60,5908.90
899.98,5859.33
900.35,5811.20
900.73,5764.45
901.11,5718.95
901.49,5674.54
901.87,5631.02
902.25,5588.24
902.63,5546.05
903.00,5504.36
903.38,5463.13
903.76,5422.34
904.14,5382.06
904.52,5342.36
904.89,5303.37
905.27,5265.23
905.65,5228.08
906.03,5192.06
906.40,5157.27
906.78,5123.73
907.16,5091.37
907.54,5060.02
907.91,5029.40
908.29,4999.15
908.67,4968.85
909.05,4938.09
909.42,4906.50
909.80,4873.83
910.18,4839.95
910.55,4804.90
910.93,4768.86
911.31,4732.14
911.68,4695.10
912.06,4658.13
912.44,4621.57
912.82,4585.67
913.19,4550.58
913.57,4516.33
913.94,4482.88
914.32,4450.11
914.70,4417.87
915.07,4386.02
915.45,4354.47
915.83,4323.15
916.20,4292.06
916.58,4261.23
916.95,4230.77
917.33,4200.77
917.71,4171.38
918.08,4142.74
918.46,4114.99
918.83,4088.27
919.21,4062.73
919.58,4038.49
919.96,4015.68
920.34,3994.39
920.71,3974.68
921.09,3956.59
921.46,3940.11
921.84,3925.20
922.21,3911.76
922.59,3899.69
922.96,3888.81
923.34,3878.98
923.71,3869.99
924.09,3861.67
924.46,3853.80
924.84,3846.22
925.21,3838.75
925.59,3831.22
925.96,3823.48
926.34,3815.41
926.71,3806.90
927.08,3797.87
927.46,3788.24
927.83,3777.99
928.21,3767.09
928.58,3755.55
928.96,3743.40
929.33,3730.66
929.70,3717.36
930.08,3703.53
930.45,3689.17
930.83,3674.30
931.20,3658.91
931.57,3642.99
931.95,3626.51
932.32,3609.47
932.69,3591.87
933.07,3573.72
933.44,3555.04
933.81,3535.89
934.19,3516.32
934.56,3496.38
934.93,3476.16
935.31,3455.72
935.68,3435.12
936.05,3414.38
936.43,3393.52
936.80,3372.53
937.17,3351.39
937.54,3330.07
937.92,3308.54
938.29,3286.78
938.66,3264.83
939.03,3242.73
939.41,3220.57
939.78,3198.47
940.15,3176.56
940.52,3154.98
940.90,3133.86
941.27,3113.31
941.64,3093.43
942.01,3074.29
942.38,3055.94
942.76,3038.43
943.13,3021.78
943.50,3006.02
943.87,2991.14
944.24,2977.14
944.61,2963.94
944.99,2951.45
945.36,2939.54
945.73,2928.03
946.10,2916.70
946.47,2905.34
946.84,2893.72
947.21,2881.67
947.59,2869.04
947.96,2855.80
948.33,2841.96
948.70,2827.64
949.07,2813.02
949.44,2798.31
949.81,2783.76
950.18,2769.56
950.55,2755.87
950.92,2742.79
951.29,2730.30
951.66,2718.32
952.03,2706.69
952.41,2695.22
952.78,2683.72
953.15,2672.01
953.52,2659.95
953.89,2647.49
954.26,2634.63
954.63,2621.40
955.00,2607.89
955.37,2594.18
955.74,2580.32
956.11,2566.36
956.48,2552.28
956.84,2538.06
957.21,2523.65
957.58,2509.00
957.95,2494.07
958.32,2478.85
958.69,2463.34
959.06,2447.57
959.43,2431.55
959.80,2415.31
960.17,2398.85
960.54,2382.18
960.91,2365.27
961.28,2348.12
961.64,2330.72
962.01,2313.12
962.38,2295.37
962.75,2277.54
963.12,2259.75
963.49,2242.08
963.86,2224.64
964.22,2207.49
964.59,2190.67
964.96,2174.17
965.33,2157.98
965.70,2142.08
966.07,2126.44
966.43,2111.07
966.80,2095.99
967.17,2081.26
967.54,2066.93
967.91,2053.10
968.27,2039.82
968.64,2027.13
969.01,2015.04
969.38,2003.48
969.74,1992.37
970.11,1981.60
970.48,1971.04
970.85,1960.59
971.21,1950.14
971.58,1939.65
971.95,1929.10
972.31,1918.47
972.68,1907.81
973.05,1897.11
973.42,1886.39
973.78,1875.62
974.15,1864.77
974.52,1853.78
974.88,1842.61
975.25,1831.19
975.62,1819.50
975.98,1807.53
976.35,1795.30
976.72,1782.88
977.08,1770.33
977.45,1757.75
977.81,1745.27
978.18,1732.98
978.55,1721.00
978.91,1709.39
979.28,1698.21
979.64,1687.46
980.01,1677.10
980.38,1667.04
980.74,1657.18
981.11,1647.36
981.47,1637.44
981.84,1627.29
982.20,1616.79
982.57,1605.90
982.93,1594.60
983.30,1582.94
983.66,1571.02
984.03,1558.95
984.39,1546.88
984.76,1534.94
985.12,1523.28
985.49,1511.97
985.85,1501.08
986.22,1490.63
986.58,1480.60
986.95,1470.95
987.31,1461.61
987.68,1452.51
988.04,1443.60
988.41,1434.82
988.77,1426.17
989.13,1417.64
989.50,1409.28
989.86,1401.11
990.23,1393.17
990.59,1385.48
990.96,1378.02
991.32,1370.73
991.68,1363.52
992.05,1356.25
992.41,1348.79
992.77,1340.99
993.14,1332.74
993.50,1323.96
993.86,1314.63
994.23,1304.78
994.59,1294.51
994.95,1283.93
995.32,1273.21
995.68,1262.50
996.04,1251.95
996.41,1241.68
996.77,1231.77
997.13,1222.29
997.50,1213.24
997.86,1204.61
998.22,1196.36
998.58,1188.41
998.95,1180.71
999.31,1173.16
999.67,1165.69
1000.03,1158.22
1000.40,1150.68
1000.76,1143.01
1001.12,1135.21
1001.48,1127.26
1001.84,1119.22
1002.21,1111.17
1002.57,1103.20
1002.93,1095.46
1003.29,1088.08
1003.65,1081.19
1004.02,1074.89
1004.38,1069.22
1004.74,1064.18
1005.10,1059.68
1005.46,1055.60
1005.82,1051.76
1006.19,1047.99
1006.55,1044.09
1006.91,1039.92
1007.27,1035.37
1007.63,1030.40
1007.99,1025.03
1008.35,1019.34
1008.71,1013.43
1009.07,1007.42
1009.43,1001.44
1009.80,995.55
1010.16,989.82
1010.52,984.26
1010.88,978.83
1011.24,973.50
1011.60,968.21
1011.96,962.91
1012.32,957.57
1012.68,952.15
1013.04,946.67
1013.40,941.13
1013.76,935.55
1014.12,929.96
1014.48,924.38
1014.84,918.84
1015.20,913.38
1015.56,908.03
1015.92,902.86
1016.28,897.93
1016.64,893.29
1017.00,889.00
1017.36,885.09
1017.72,881.56
1018.07,878.38
1018.43,875.49
1018.79,872.81
1019.15,870.21
1019.51,867.58
1019.87,864.80
1020.23,861.77
1020.59,858.41
1020.95,854.65
1021.31,850.48
1021.66,845.91
1022.02,840.96
1022.38,835.69
1022.74,830.19
1023.10,824.53
1023.46,818.82
1023.81,813.15
1024.17,807.60
1024.53,802.22
1024.89,797.05
1025.25,792.08
1025.60,787.29
1025.96,782.67
1026.32,778.16
1026.68,773.72
1027.04,768.46
1027.39,764.49
1027.75,760.28
1028.11,755.93
1028.47,751.57
1028.82,716.90
1029.18,788.04
1029.54,729.61
1029.90,729.61
1030.25,729.61
