wavelength,counts
188.65,99.85
189.10,99.85
189.56,99.85
190.01,99.85
190.47,99.85
190.92,125.06
191.37,135.55
191.83,147.47
192.28,160.65
192.74,174.90
193.19,189.96
193.64,205.56
194.10,222.07
194.55,239.42
195.01,257.54
195.46,276.34
195.91,295.73
196.37,315.57
196.82,335.72
197.27,356.00
197.73,376.25
198.18,396.26
198.63,415.83
199.09,434.77
199.54,452.88
199.99,469.98
200.45,485.90
200.90,500.53
201.35,513.77
201.81,525.59
202.26,536.00
202.71,545.04
203.17,552.80
203.62,559.38
204.07,564.90
204.53,569.48
204.98,573.21
205.43,576.18
205.89,578.45
206.34,580.07
206.79,581.08
207.25,581.52
207.70,581.41
208.15,580.79
208.60,579.73
209.06,578.27
209.51,576.50
209.96,574.49
210.41,572.33
210.87,570.10
211.32,567.89
211.77,565.78
212.23,563.86
212.68,562.19
213.13,560.86
213.58,559.90
214.04,559.38
214.49,559.31
214.94,559.69
215.39,560.50
215.84,561.69
216.30,563.18
216.75,564.84
217.20,566.53
217.65,568.10
218.11,569.40
218.56,570.27
219.01,570.60
219.46,570.32
219.91,569.40
220.37,567.87
220.82,565.81
221.27,563.34
221.72,560.58
222.17,557.69
222.63,554.80
223.08,552.05
223.53,549.52
223.98,547.30
224.43,545.44
224.88,543.96
225.34,542.88
225.79,542.22
226.24,541.97
226.69,542.12
227.14,542.65
227.59,543.51
228.04,544.63
228.50,545.94
228.95,547.32
229.40,548.67
229.85,549.88
230.30,550.86
230.75,551.55
231.20,551.91
231.66,551.95
232.11,551.68
232.56,551.17
233.01,550.46
233.46,549.62
233.91,548.69
234.36,547.70
234.81,546.70
235.26,545.68
235.71,544.68
236.17,543.70
236.62,542.77
237.07,541.92
237.52,541.18
237.97,540.60
238.42,540.18
238.87,539.95
239.32,539.92
239.77,540.06
240.22,540.36
240.67,540.80
241.12,541.35
241.57,542.00
242.02,542.75
242.47,543.60
242.92,544.57
243.37,545.68
243.82,546.91
244.27,548.27
244.72,549.71
245.18,551.18
245.63,552.62
246.08,553.94
246.53,555.08
246.98,556.00
247.43,556.65
247.88,557.06
248.33,557.25
248.78,557.30
249.23,557.27
249.68,557.26
250.12,557.34
250.57,557.57
251.02,557.97
251.47,558.53
251.92,559.22
252.37,559.99
252.82,560.75
253.27,561.45
253.72,562.02
254.17,562.41
254.62,562.62
255.07,562.64
255.52,562.50
255.97,562.22
256.42,561.84
256.87,561.38
257.32,560.88
257.77,560.33
258.22,559.74
258.66,559.10
259.11,558.40
259.56,557.62
260.01,556.77
260.46,555.86
260.91,554.90
261.36,553.90
261.81,552.89
262.26,551.90
262.71,550.95
263.15,550.05
263.60,549.23
264.05,548.51
264.50,547.90
264.95,547.42
265.40,547.09
265.85,546.93
266.30,546.97
266.74,547.22
267.19,547.71
267.64,548.44
268.09,549.42
268.54,550.62
268.99,552.02
269.43,553.56
269.88,555.18
270.33,556.78
270.78,558.29
271.23,559.62
271.68,560.72
272.12,561.56
272.57,562.14
273.02,562.50
273.47,562.71
273.92,562.85
274.36,563.01
274.81,563.27
275.26,563.67
275.71,564.24
276.16,564.94
276.60,565.72
277.05,566.49
277.50,567.17
277.95,567.64
278.39,567.83
278.84,567.68
279.29,567.18
279.74,566.36
280.19,565.27
280.63,564.00
281.08,562.67
281.53,561.39
281.98,560.26
282.42,559.37
282.87,558.75
283.32,558.42
283.76,558.33
284.21,558.42
284.66,558.62
285.11,558.84
285.55,559.00
286.00,559.05
286.45,558.96
286.89,558.73
287.34,558.39
287.79,558.00
288.23,557.62
288.68,557.32
289.13,557.15
289.58,557.18
290.02,557.42
290.47,557.87
290.92,558.51
291.36,559.29
291.81,560.10
292.26,560.86
292.70,561.45
293.15,561.76
293.60,561.71
294.04,561.25
294.49,560.37
294.93,559.11
295.38,557.57
295.83,555.87
296.27,554.19
296.72,552.67
297.17,551.49
297.61,550.77
298.06,550.60
298.50,551.02
298.95,552.00
299.40,553.49
299.84,555.36
300.29,557.47
300.73,559.67
301.18,561.77
301.63,563.62
302.07,565.08
302.52,566.04
302.96,566.42
303.41,566.19
303.85,565.35
304.30,563.95
304.75,562.05
305.19,559.76
305.64,557.22
306.08,554.57
306.53,551.97
306.97,549.58
307.42,547.55
307.86,546.01
308.31,545.06
308.75,544.77
309.20,545.16
309.65,546.21
310.09,547.84
310.54,549.95
310.98,552.41
311.43,555.05
311.87,557.75
312.32,560.36
312.76,562.78
313.21,564.93
313.65,566.76
314.10,568.23
314.54,569.34
314.99,570.09
315.43,570.49
315.87,570.53
316.32,570.24
316.76,569.66
317.21,568.81
317.65,567.77
318.10,566.63
318.54,565.47
318.99,564.41
319.43,563.56
319.88,563.01
320.32,562.81
320.76,563.00
321.21,563.58
321.65,564.52
322.10,565.78
322.54,567.28
322.99,568.99
323.43,570.87
323.87,572.88
324.32,575.01
324.76,577.25
325.21,579.57
325.65,581.92
326.09,584.24
326.54,586.43
326.98,588.37
327.42,589.93
327.87,591.00
328.31,591.49
328.76,591.37
329.20,590.66
329.64,589.42
330.09,587.78
330.53,585.91
330.97,583.97
331.42,582.12
331.86,580.48
332.30,579.13
332.75,578.08
333.19,577.30
333.63,576.70
334.08,576.19
334.52,575.64
334.96,574.98
335.41,574.12
335.85,573.06
336.29,571.83
336.74,570.48
337.18,569.11
337.62,567.87
338.06,566.86
338.51,566.21
338.95,566.02
339.39,566.37
339.84,567.28
340.28,568.74
340.72,570.70
341.16,573.06
341.61,575.69
342.05,578.43
342.49,581.11
342.93,583.56
343.38,585.65
343.82,587.24
344.26,588.27
344.70,588.69
345.15,588.54
345.59,587.86
346.03,586.74
346.47,585.31
346.92,583.69
347.36,582.03
347.80,580.45
348.24,579.06
348.68,577.96
349.13,577.21
349.57,576.83
350.01,576.83
350.45,577.18
350.89,577.83
351.34,578.71
351.78,579.77
352.22,580.92
352.66,582.09
353.10,583.23
353.54,584.26
353.99,585.15
354.43,585.85
354.87,586.32
355.31,586.54
355.75,586.51
356.19,586.25
356.63,585.79
357.08,585.18
357.52,584.49
357.96,583.81
358.40,583.19
358.84,582.71
359.28,582.41
359.72,582.32
360.16,582.45
360.60,582.78
361.05,583.29
361.49,583.92
361.93,584.65
362.37,585.41
362.81,586.15
363.25,586.83
363.69,587.40
364.13,587.85
364.57,588.14
365.01,588.30
365.45,588.34
365.89,588.32
366.33,588.30
366.78,588.37
367.22,588.62
367.66,589.14
368.10,589.98
368.54,591.19
368.98,592.78
369.42,594.72
369.86,596.94
370.30,599.37
370.74,601.90
371.18,604.41
371.62,606.79
372.06,608.93
372.50,610.74
372.94,612.18
373.38,613.21
373.82,613.85
374.26,614.16
374.70,614.22
375.14,614.17
375.58,614.12
376.02,614.22
376.46,614.59
376.90,615.31
377.34,616.44
377.78,617.99
378.21,619.93
378.65,622.20
379.09,624.73
379.53,627.42
379.97,630.18
380.41,632.95
380.85,635.67
381.29,638.29
381.73,640.81
382.17,643.22
382.61,645.52
383.05,647.74
383.49,649.90
383.93,651.99
384.36,654.04
384.80,656.04
385.24,657.98
385.68,659.84
386.12,661.60
386.56,663.25
387.00,664.75
387.44,666.11
387.87,667.33
388.31,668.45
388.75,669.50
389.19,670.56
389.63,671.69
390.07,672.97
390.51,674.45
390.94,676.18
391.38,678.18
391.82,680.44
392.26,682.92
392.70,685.57
393.14,688.30
393.57,691.01
394.01,693.60
394.45,695.96
394.89,698.01
395.33,699.67
395.76,700.91
396.20,701.72
396.64,702.15
397.08,702.29
397.52,702.24
397.95,702.17
398.39,702.24
398.83,702.60
399.27,703.41
399.70,704.81
400.14,706.91
400.58,709.77
401.02,713.43
401.45,717.89
401.89,723.11
402.33,729.00
402.77,735.45
403.20,742.33
403.64,749.47
404.08,756.71
404.52,763.88
404.95,770.85
405.39,777.50
405.83,783.78
406.26,789.65
406.70,795.14
407.14,800.28
407.58,805.16
408.01,809.85
408.45,814.41
408.89,818.93
409.32,823.45
409.76,828.01
410.20,832.64
410.63,837.36
411.07,842.18
411.51,847.12
411.94,852.16
412.38,857.32
412.82,862.58
413.25,867.95
413.69,873.39
414.12,878.89
414.56,884.41
415.00,889.89
415.43,895.28
415.87,900.52
416.31,905.56
416.74,910.38
417.18,914.97
417.61,919.35
418.05,923.58
418.49,927.75
418.92,931.97
419.36,936.35
419.79,940.99
420.23,946.00
420.67,951.45
421.10,957.38
421.54,963.82
421.97,970.75
422.41,978.14
422.84,985.94
423.28,994.07
423.71,1002.45
424.15,1010.97
424.59,1019.54
425.02,1028.09
425.46,1036.57
425.89,1044.98
426.33,1053.34
426.76,1061.75
427.20,1070.29
427.63,1079.06
428.07,1088.16
428.50,1097.63
428.94,1107.46
429.37,1117.59
429.81,1127.91
430.24,1138.27
430.68,1148.54
431.11,1158.58
431.55,1168.32
431.98,1177.72
432.42,1186.82
432.85,1195.69
433.28,1204.42
433.72,1213.16
434.15,1222.00
434.59,1231.06
435.02,1240.41
435.46,1250.10
435.89,1260.14
436.33,1270.52
436.76,1281.22
437.19,1292.18
437.63,1303.33
438.06,1314.61
438.50,1325.91
438.93,1337.14
439.37,1348.20
439.80,1359.01
440.23,1369.49
440.67,1379.58
441.10,1389.24
441.53,1398.45
441.97,1407.18
442.40,1415.43
442.84,1423.23
443.27,1430.58
443.70,1437.53
444.14,1444.14
444.57,1450.48
445.00,1456.64
445.44,1462.74
445.87,1468.87
446.30,1475.13
446.74,1481.57
447.17,1488.24
447.60,1495.13
448.04,1502.19
448.47,1509.39
448.90,1516.65
449.34,1523.96
449.77,1531.29
450.20,1538.70
450.64,1546.24
451.07,1554.01
451.50,1562.14
451.93,1570.71
452.37,1579.80
452.80,1589.47
453.23,1599.71
453.67,1610.52
454.10,1621.87
454.53,1633.75
454.96,1646.16
455.40,1659.13
455.83,1672.74
456.26,1687.05
456.69,1702.15
457.13,1718.08
457.56,1734.81
457.99,1752.27
458.42,1770.30
458.86,1788.68
459.29,1807.16
459.72,1825.46
460.15,1843.35
460.58,1860.67
461.02,1877.32
461.45,1893.33
461.88,1908.82
462.31,1923.95
462.74,1938.94
463.18,1954.01
463.61,1969.30
464.04,1984.91
464.47,2000.85
464.90,2017.06
465.33,2033.44
465.77,2049.90
466.20,2066.39
466.63,2082.92
467.06,2099.60
467.49,2116.64
467.92,2134.29
468.35,2152.80
468.78,2172.40
469.22,2193.22
469.65,2215.29
470.08,2238.51
470.51,2262.72
470.94,2287.70
471.37,2313.29
471.80,2339.37
472.23,2365.98
472.66,2393.24
473.10,2421.40
473.53,2450.76
473.96,2481.57
474.39,2514.00
474.82,2548.08
475.25,2583.65
475.68,2620.41
476.11,2657.94
476.54,2695.81
476.97,2733.64
477.40,2771.20
477.83,2808.47
478.26,2845.61
478.69,2882.99
479.12,2921.07
479.55,2960.31
479.98,3001.05
480.41,3043.42
480.84,3087.28
481.27,3132.19
481.70,3177.46
482.13,3222.26
482.56,3265.72
482.99,3307.13
483.42,3345.99
483.85,3382.21
484.28,3416.06
484.71,3448.16
485.14,3479.43
485.57,3510.86
486.00,3543.41
486.43,3577.80
486.86,3614.39
487.29,3653.10
487.72,3693.44
488.15,3734.56
488.58,3775.40
489.01,3814.92
489.44,3852.21
489.87,3886.72
490.30,3918.33
490.72,3947.36
491.15,3974.56
491.58,4000.91
492.01,4027.48
492.44,4055.21
492.87,4084.75
493.30,4116.31
493.73,4149.61
494.16,4183.94
494.59,4218.27
495.01,4251.43
495.44,4282.31
495.87,4310.08
496.30,4334.33
496.73,4355.19
497.16,4373.27
497.59,4389.65
498.01,4405.64
498.44,4422.61
498.87,4441.78
499.30,4464.00
499.73,4489.61
500.16,4518.41
500.58,4549.64
501.01,4582.13
501.44,4614.47
501.87,4645.25
502.30,4673.23
502.72,4697.62
503.15,4718.14
503.58,4735.13
504.01,4749.48
504.44,4762.50
504.86,4775.74
505.29,4790.72
505.72,4808.72
506.15,4830.55
506.57,4856.43
507.00,4885.91
507.43,4917.96
507.86,4951.13
508.28,4983.71
508.71,5014.03
509.14,5040.73
509.57,5062.93
509.99,5080.39
510.42,5093.57
510.85,5103.52
511.27,5111.77
511.70,5120.05
512.13,5130.09
512.56,5143.30
512.98,5160.58
513.41,5182.17
513.84,5207.60
514.26,5235.73
514.69,5264.96
515.12,5293.39
515.54,5319.14
515.97,5340.62
516.40,5356.76
516.82,5367.21
517.25,5372.40
517.68,5373.50
518.10,5372.29
518.53,5370.91
518.95,5371.58
519.38,5376.26
519.81,5386.40
520.23,5402.69
520.66,5424.97
521.09,5452.22
521.51,5482.68
521.94,5514.10
522.36,5544.02
522.79,5570.12
523.22,5590.54
523.64,5604.12
524.07,5610.61
524.49,5610.65
524.92,5605.78
525.34,5598.17
525.77,5590.38
526.20,5585.01
526.62,5584.34
527.05,5590.03
527.47,5602.88
527.90,5622.68
528.32,5648.25
528.75,5677.56
529.17,5707.97
529.60,5736.63
530.02,5760.79
530.45,5778.22
530.87,5787.50
531.30,5788.22
531.72,5781.11
532.15,5767.88
532.57,5751.06
533.00,5733.69
533.42,5718.90
533.85,5709.53
534.27,5707.76
534.70,5714.81
535.12,5730.82
535.55,5754.80
535.97,5784.74
536.40,5817.91
536.82,5851.11
537.25,5881.15
537.67,5905.15
538.09,5920.97
538.52,5927.42
538.94,5924.43
539.37,5913.05
539.79,5895.36
540.22,5874.22
540.64,5852.93
541.06,5834.81
541.49,5822.90
541.91,5819.46
542.34,5825.81
542.76,5842.10
543.18,5867.27
543.61,5899.22
544.03,5935.00
544.46,5971.18
544.88,6004.23
545.30,6030.99
545.73,6048.97
546.15,6056.73
546.57,6053.99
547.00,6041.71
547.42,6021.98
547.84,5997.78
548.27,5972.61
548.69,5950.15
549.11,5933.79
549.54,5926.24
549.96,5929.24
550.38,5943.37
550.81,5967.95
551.23,6001.13
551.65,6040.13
552.07,6081.50
552.50,6121.56
552.92,6156.75
553.34,6184.04
553.77,6201.25
554.19,6207.27
554.61,6202.18
555.03,6187.20
555.46,6164.58
555.88,6137.34
556.30,6109.01
556.72,6083.19
557.15,6063.26
557.57,6052.02
557.99,6051.42
558.41,6062.35
558.84,6084.62
559.26,6116.89
559.68,6156.90
560.10,6201.62
560.52,6247.59
560.95,6291.27
561.37,6329.35
561.79,6359.12
562.21,6378.73
562.63,6387.37
563.06,6385.34
563.48,6374.05
563.90,6355.84
564.32,6333.79
564.74,6311.36
565.16,6292.12
565.58,6279.35
566.01,6275.73
566.43,6283.11
566.85,6302.33
567.27,6333.11
567.69,6374.13
568.11,6423.08
568.53,6476.95
568.96,6532.23
569.38,6585.27
569.80,6632.60
570.22,6671.20
570.64,6698.83
571.06,6714.17
571.48,6716.95
571.90,6707.96
572.32,6688.95
572.74,6662.46
573.16,6631.54
573.58,6599.51
574.01,6569.59
574.43,6544.66
574.85,6526.98
575.27,6518.01
575.69,6518.33
576.11,6527.61
576.53,6544.68
576.95,6567.70
577.37,6594.32
577.79,6621.93
578.21,6647.92
578.63,6669.84
579.05,6685.70
579.47,6694.05
579.89,6694.10
580.31,6685.81
580.73,6669.83
581.15,6647.48
581.57,6620.62
581.99,6591.51
582.41,6562.64
582.83,6536.54
583.25,6515.57
583.67,6501.77
584.09,6496.67
584.51,6501.20
584.93,6515.62
585.34,6539.51
585.76,6571.84
586.18,6611.02
586.60,6655.07
587.02,6701.78
587.44,6748.85
587.86,6794.05
588.28,6835.42
588.70,6871.34
589.12,6900.70
589.54,6922.88
589.95,6937.87
590.37,6946.26
590.79,6949.17
591.21,6948.21
591.63,6945.40
592.05,6942.99
592.47,6943.34
592.89,6948.77
593.30,6961.34
593.72,6982.71
594.14,7014.04
594.56,7055.84
594.98,7107.96
595.40,7169.54
595.81,7239.12
596.23,7314.67
596.65,7393.81
597.07,7473.88
597.49,7552.20
597.90,7626.23
598.32,7693.73
598.74,7752.95
599.16,7802.70
599.58,7842.42
599.99,7872.22
600.41,7892.85
600.83,7905.60
601.25,7912.20
601.66,7914.65
602.08,7915.12
602.50,7915.72
602.92,7918.37
603.33,7924.68
603.75,7935.82
604.17,7952.50
604.59,7974.86
605.00,8002.56
605.42,8034.78
605.84,8070.32
606.25,8107.69
606.67,8145.20
607.09,8181.13
607.51,8213.80
607.92,8241.74
608.34,8263.71
608.76,8278.83
609.17,8286.60
609.59,8286.93
610.01,8280.15
610.42,8266.96
610.84,8248.42
611.26,8225.88
611.67,8200.88
612.09,8175.10
612.51,8150.29
612.92,8128.14
613.34,8110.20
613.75,8097.80
614.17,8091.97
614.59,8093.40
615.00,8102.35
615.42,8118.66
615.83,8141.77
616.25,8170.72
616.67,8204.23
617.08,8240.80
617.50,8278.73
617.91,8316.32
618.33,8351.89
618.75,8383.94
619.16,8411.23
619.58,8432.83
619.99,8448.24
620.41,8457.41
620.82,8460.74
621.24,8459.06
621.65,8453.58
622.07,8445.83
622.48,8437.50
622.90,8430.32
623.31,8425.95
623.73,8425.81
624.14,8431.03
624.56,8442.32
624.97,8459.96
625.39,8483.83
625.80,8513.39
626.22,8547.78
626.63,8585.91
627.05,8626.51
627.46,8668.24
627.88,8709.75
628.29,8749.78
628.71,8787.16
629.12,8820.95
629.54,8850.39
629.95,8875.00
630.37,8894.57
630.78,8909.19
631.19,8919.21
631.61,8925.24
632.02,8928.13
632.44,8928.87
632.85,8928.57
633.26,8928.36
633.68,8929.36
634.09,8932.59
634.51,8938.93
634.92,8949.07
635.33,8963.50
635.75,8982.47
636.16,9006.01
636.57,9033.93
636.99,9065.82
637.40,9101.10
637.82,9139.05
638.23,9178.83
638.64,9219.51
639.06,9260.17
639.47,9299.87
639.88,9337.74
640.30,9373.01
640.71,9405.03
641.12,9433.30
641.53,9457.52
641.95,9477.58
642.36,9493.56
642.77,9505.79
643.19,9514.74
643.60,9521.14
644.01,9525.82
644.42,9529.78
644.84,9534.11
645.25,9539.89
645.66,9548.22
646.08,9560.04
646.49,9576.17
646.90,9597.17
647.31,9623.30
647.73,9654.55
648.14,9690.55
648.55,9730.65
648.96,9773.94
649.37,9819.28
649.79,9865.42
650.20,9911.08
650.61,9954.99
651.02,9996.01
651.43,10033.21
651.85,10065.86
652.26,10093.51
652.67,10115.99
653.08,10133.41
653.49,10146.13
653.90,10154.71
654.32,10159.91
654.73,10162.63
655.14,10163.85
655.55,10164.59
655.96,10165.90
656.37,10168.75
656.78,10174.03
657.20,10182.49
657.61,10194.72
658.02,10211.08
658.43,10231.73
658.84,10256.60
659.25,10285.41
659.66,10317.67
660.07,10352.79
660.48,10390.04
660.90,10428.67
661.31,10467.90
661.72,10506.97
662.13,10545.19
662.54,10581.90
662.95,10616.54
663.36,10648.59
663.77,10677.63
664.18,10703.31
664.59,10725.37
665.00,10743.65
665.41,10758.14
665.82,10768.96
666.23,10776.40
666.64,10780.89
667.05,10783.03
667.46,10783.53
667.87,10783.21
668.28,10782.97
668.69,10783.68
669.10,10786.21
669.51,10791.36
669.92,10799.78
670.33,10811.96
670.74,10828.20
671.15,10848.57
671.56,10872.87
671.97,10900.67
672.38,10931.30
672.79,10963.91
673.20,10997.49
673.61,11031.01
674.02,11063.41
674.42,11093.76
674.83,11121.26
675.24,11145.32
675.65,11165.60
676.06,11181.96
676.47,11194.50
676.88,11203.50
677.29,11209.38
677.70,11212.68
678.11,11213.98
678.51,11213.89
678.92,11213.03
679.33,11211.96
679.74,11211.22
680.15,11211.26
680.56,11212.46
680.97,11215.16
681.37,11219.60
681.78,11225.96
682.19,11234.36
682.60,11244.87
683.01,11257.51
683.42,11272.24
683.82,11288.96
684.23,11307.53
684.64,11327.73
685.05,11349.31
685.45,11371.94
685.86,11395.27
686.27,11418.93
686.68,11442.54
687.09,11465.73
687.49,11488.15
687.90,11509.49
688.31,11529.45
688.72,11547.79
689.12,11564.25
689.53,11578.60
689.94,11590.62
690.35,11600.12
690.75,11606.92
691.16,11610.92
691.57,11612.11
691.97,11610.61
692.38,11606.71
692.79,11600.90
693.20,11593.85
693.60,11586.41
694.01,11579.59
694.42,11574.45
694.82,11572.02
695.23,11573.22
695.64,11578.76
696.04,11589.07
696.45,11604.21
696.86,11623.92
697.26,11647.59
697.67,11674.37
698.07,11703.20
698.48,11732.97
698.89,11762.57
699.29,11790.99
699.70,11817.38
700.11,11841.07
700.51,11861.60
700.92,11878.69
701.32,11892.19
701.73,11902.09
702.14,11908.50
702.54,11911.60
702.95,11911.65
703.35,11908.99
703.76,11904.05
704.16,11897.31
704.57,11889.33
704.97,11880.69
705.38,11872.00
705.79,11863.86
706.19,11856.83
706.60,11851.41
707.00,11848.06
707.41,11847.13
707.81,11848.90
708.22,11853.56
708.62,11861.19
709.03,11871.77
709.43,11885.15
709.84,11901.06
710.24,11919.10
710.65,11938.76
711.05,11959.44
711.46,11980.48
711.86,12001.22
712.27,12021.04
712.67,12039.41
713.07,12055.90
713.48,12070.21
713.88,12082.18
714.29,12091.74
714.69,12098.92
715.10,12103.80
715.50,12106.47
715.90,12107.04
716.31,12105.63
716.71,12102.34
717.12,12097.33
717.52,12090.81
717.92,12083.08
718.33,12074.54
718.73,12065.70
719.14,12057.14
719.54,12049.51
719.94,12043.44
720.35,12039.49
720.75,12038.08
721.15,12039.42
721.56,12043.54
721.96,12050.22
722.36,12059.05
722.77,12069.48
723.17,12080.91
723.57,12092.73
723.98,12104.43
724.38,12115.62
724.78,12126.06
725.19,12135.65
725.59,12144.40
725.99,12152.39
726.39,12159.70
726.80,12166.36
727.20,12172.35
727.60,12177.54
728.00,12181.72
728.41,12184.63
728.81,12185.99
729.21,12185.53
729.61,12183.05
730.02,12178.42
730.42,12171.61
730.82,12162.66
731.22,12151.71
731.63,12138.97
732.03,12124.71
732.43,12109.24
732.83,12092.93
733.23,12076.18
733.64,12059.42
734.04,12043.09
734.44,12027.61
734.84,12013.35
735.24,12000.64
735.64,11989.68
736.05,11980.58
736.45,11973.31
736.85,11967.75
737.25,11963.70
737.65,11960.92
738.05,11959.15
738.45,11958.14
738.86,11957.71
739.26,11957.70
739.66,11958.03
740.06,11958.62
740.46,11959.41
740.86,11960.30
741.26,11961.12
741.66,11961.64
742.06,11961.54
742.46,11960.43
742.87,11957.85
743.27,11953.33
743.67,11946.45
744.07,11936.83
744.47,11924.25
744.87,11908.61
745.27,11890.00
745.67,11868.68
746.07,11845.11
746.47,11819.89
746.87,11793.74
747.27,11767.47
747.67,11741.93
748.07,11717.98
748.47,11696.43
748.87,11678.00
749.27,11663.33
749.67,11652.89
750.07,11647.04
750.47,11645.95
750.87,11649.68
751.27,11658.10
751.67,11671.01
752.07,11688.04
752.47,11708.75
752.87,11732.61
753.27,11758.99
753.66,11787.18
754.06,11816.40
754.46,11845.78
754.86,11874.42
755.26,11901.35
755.66,11925.62
756.06,11946.33
756.46,11962.62
756.86,11973.79
757.26,11979.24
757.65,11978.57
758.05,11971.54
758.45,11958.08
758.85,11938.25
759.25,11912.26
759.65,11880.41
760.05,11843.08
760.44,11800.71
760.84,11753.77
761.24,11702.76
761.64,11648.22
762.04,11590.69
762.44,11530.77
762.83,11469.04
763.23,11406.13
763.63,11342.70
764.03,11279.42
764.43,11216.93
764.82,11155.89
765.22,11096.91
765.62,11040.52
766.02,10987.18
766.41,10937.27
766.81,10891.04
767.21,10848.65
767.61,10810.18
768.00,10775.61
768.40,10744.86
768.80,10717.76
769.20,10694.10
769.59,10673.59
769.99,10655.88
770.39,10640.52
770.79,10627.01
771.18,10614.76
771.58,10603.14
771.98,10591.47
772.37,10579.07
772.77,10565.32
773.17,10549.63
773.56,10531.50
773.96,10510.55
774.36,10486.47
774.75,10459.07
775.15,10428.24
775.55,10393.95
775.94,10356.22
776.34,10315.15
776.73,10270.90
777.13,10223.72
777.53,10173.93
777.92,10121.98
778.32,10068.40
778.72,10013.81
779.11,9958.91
779.51,9904.40
779.90,9851.01
780.30,9799.40
780.69,9750.17
781.09,9703.82
781.49,9660.73
781.88,9621.20
782.28,9585.42
782.67,9553.48
783.07,9525.41
783.46,9501.17
783.86,9480.65
784.25,9463.65
784.65,9449.90
785.04,9439.05
785.44,9430.67
785.83,9424.23
786.23,9419.17
786.62,9414.89
787.02,9410.79
787.41,9406.31
787.81,9400.98
788.20,9394.39
788.60,9386.25
788.99,9376.37
789.39,9364.63
789.78,9350.94
790.18,9335.22
790.57,9317.38
790.97,9297.29
791.36,9274.76
791.75,9249.59
792.15,9221.57
792.54,9190.50
792.94,9156.27
793.33,9118.84
793.72,9078.28
794.12,9034.81
794.51,8988.73
794.91,8940.46
795.30,8890.53
795.69,8839.53
796.09,8788.09
796.48,8736.90
796.87,8686.65
797.27,8637.99
797.66,8591.57
798.05,8547.95
798.45,8507.61
798.84,8470.93
799.23,8438.15
799.63,8409.35
800.02,8384.52
800.41,8363.45
800.81,8345.88
801.20,8331.41
801.59,8319.60
801.99,8310.01
802.38,8302.18
802.77,8295.73
803.16,8290.33
803.56,8285.72
803.95,8281.73
804.34,8278.22
804.73,8275.09
805.13,8272.21
805.52,8269.43
805.91,8266.53
806.30,8263.22
806.69,8259.16
807.09,8253.92
807.48,8247.08
807.87,8238.17
808.26,8226.79
808.66,8212.57
809.05,8195.24
809.44,8174.62
809.83,8150.62
810.22,8123.26
810.61,8092.65
811.01,8058.97
811.40,8022.42
811.79,7983.27
812.18,7941.77
812.57,7898.17
812.96,7852.73
813.35,7805.72
813.75,7757.41
814.14,7708.13
814.53,7658.24
814.92,7608.19
815.31,7558.49
815.70,7509.70
816.09,7462.43
816.48,7417.28
816.87,7374.83
817.26,7335.61
817.65,7300.03
818.04,7268.40
818.44,7240.93
818.83,7217.68
819.22,7198.62
819.61,7183.64
820.00,7172.54
820.39,7165.11
820.78,7161.06
821.17,7160.09
821.56,7161.86
821.95,7165.96
822.34,7171.94
822.73,7179.26
823.12,7187.32
823.51,7195.47
823.90,7203.02
824.29,7209.28
824.68,7213.62
825.07,7215.44
825.46,7214.28
825.85,7209.79
826.24,7201.76
826.62,7190.08
827.01,7174.77
827.40,7155.93
827.79,7133.73
828.18,7108.35
828.57,7080.00
828.96,7048.88
829.35,7015.21
829.74,6979.18
830.13,6941.00
830.52,6900.91
830.90,6859.20
831.29,6816.19
831.68,6772.28
832.07,6727.94
832.46,6683.69
832.85,6640.09
833.24,6597.70
833.62,6557.09
834.01,6518.77
834.40,6483.15
834.79,6450.59
835.18,6421.29
835.57,6395.36
835.95,6372.83
836.34,6353.61
836.73,6337.58
837.12,6324.60
837.51,6314.51
837.89,6307.18
838.28,6302.50
838.67,6300.39
839.06,6300.78
839.44,6303.58
839.83,6308.68
840.22,6315.89
840.61,6324.95
840.99,6335.53
841.38,6347.20
841.77,6359.48
842.16,6371.81
842.54,6383.65
842.93,6394.47
843.32,6403.78
843.70,6411.17
844.09,6416.33
844.48,6419.03
844.86,6419.13
845.25,6416.58
845.64,6411.41
846.02,6403.65
846.41,6393.39
846.80,6380.72
847.18,6365.72
847.57,6348.47
847.96,6329.02
848.34,6307.46
848.73,6283.85
849.12,6258.30
849.50,6230.97
849.89,6202.05
850.27,6171.80
850.66,6140.53
851.05,6108.60
851.43,6076.41
851.82,6044.38
852.20,6012.94
852.59,5982.50
852.97,5953.46
853.36,5926.17
853.75,5900.95
854.13,5878.08
854.52,5857.80
854.90,5840.32
855.29,5825.82
855.67,5814.45
856.06,5806.32
856.44,5801.51
856.83,5800.00
857.21,5801.73
857.60,5806.50
857.98,5814.02
858.37,5823.88
858.75,5835.60
859.14,5848.64
859.52,5862.43
859.91,5876.45
860.29,5890.23
860.68,5903.41
861.06,5915.75
861.44,5927.10
861.83,5937.42
862.21,5946.73
862.60,5955.05
862.98,5962.43
863.37,5968.86
863.75,5974.27
864.13,5978.53
864.52,5981.47
864.90,5982.86
865.29,5982.45
865.67,5980.00
866.05,5975.32
866.44,5968.23
866.82,5958.66
867.20,5946.62
867.59,5932.20
867.97,5915.58
868.35,5897.01
868.74,5876.81
869.12,5855.31
869.50,5832.88
869.89,5809.86
870.27,5786.56
870.65,5763.23
871.04,5740.08
871.42,5717.24
871.80,5694.81
872.19,5672.82
872.57,5651.31
872.95,5630.30
873.33,5609.84
873.72,5590.04
874.10,5571.08
874.48,5553.20
874.86,5536.72
875.25,5522.03
875.63,5509.57
876.01,5499.77
876.39,5493.07
876.77,5489.85
877.16,5490.40
877.54,5494.94
877.92,5503.55
878.30,5516.19
878.68,5532.72
879.07,5552.90
879.45,5576.40
879.83,5602.86
880.21,5631.89
880.59,5663.15
880.97,5696.30
881.36,5731.10
881.74,5767.36
882.12,5804.95
882.50,5843.79
882.88,5883.82
883.26,5924.96
883.64,5967.12
884.02,6010.10
884.41,6053.68
884.79,6097.56
885.17,6141.39
885.55,6184.81
885.93,6227.45
886.31,6269.00
886.69,6309.18
887.07,6347.77
887.45,6384.56
887.83,6419.40
888.21,6452.11
888.59,6482.49
888.97,6510.29
889.35,6535.21
889.73,6556.87
890.11,6574.88
890.49,6588.83
890.87,6598.35
891.25,6603.11
891.63,6602.90
892.01,6597.63
892.39,6587.36
892.77,6572.31
893.15,6552.84
893.53,6529.43
893.91,6502.62
894.29,6473.02
894.67,6441.20
895.05,6407.69
895.43,6372.92
895.81,6337.22
896.19,6300.81
896.57,6263.79
896.95,6226.19
897.32,6187.96
897.70,6149.03
898.08,6109.34
898.46,6068.84
898.84,6027.51
899.22,5985.39
899.60,5942.55
899.98,5899.10
900.35,5855.20
900.73,5811.01
901.11,5766.70
901.49,5722.44
901.87,5678.37
902.25,5634.63
902.63,5591.32
903.00,5548.52
903.38,5506.32
903.76,5464.73
904.14,5423.80
904.52,5383.52
904.89,5343.86
905.27,5304.78
905.65,5266.16
906.03,5227.90
906.40,5189.84
906.78,5151.81
907.16,5113.68
907.54,5075.32
907.91,5036.67
908.29,4997.74
908.67,4958.60
909.05,4919.40
909.42,4880.36
909.80,4841.70
910.18,4803.69
910.55,4766.52
910.93,4730.37
911.31,4695.34
911.68,4661.44
912.06,4628.60
912.44,4596.70
912.82,4565.57
913.19,4535.01
913.57,4504.83
913.94,4474.88
914.32,4445.09
914.70,4415.41
915.07,4385.91
915.45,4356.69
915.83,4327.89
916.20,4299.69
916.58,4272.25
916.95,4245.68
917.33,4220.10
917.71,4195.53
918.08,4172.00
918.46,4149.47
918.83,4127.90
919.21,4107.26
919.58,4087.51
919.96,4068.61
920.34,4050.54
920.71,4033.31
921.09,4016.89
921.46,4001.26
921.84,3986.41
922.21,3972.27
922.59,3958.79
922.96,3945.89
923.34,3933.49
923.71,3921.50
924.09,3909.82
924.46,3898.37
924.84,3887.06
925.21,3875.82
925.59,3864.56
925.96,3853.20
926.34,3841.66
926.71,3829.86
927.08,3817.70
927.46,3805.07
927.83,3791.88
928.21,3778.03
928.58,3763.44
928.96,3748.07
929.33,3731.87
929.70,3714.87
930.08,3697.09
930.45,3678.59
930.83,3659.46
931.20,3639.79
931.57,3619.69
931.95,3599.25
932.32,3578.57
932.69,3557.74
933.07,3536.83
933.44,3515.90
933.81,3495.01
934.19,3474.17
934.56,3453.41
934.93,3432.72
935.31,3412.08
935.68,3391.46
936.05,3370.86
936.43,3350.24
936.80,3329.60
937.17,3308.95
937.54,3288.33
937.92,3267.78
938.29,3247.37
938.66,3227.15
939.03,3207.19
939.41,3187.55
939.78,3168.26
940.15,3149.36
940.52,3130.87
940.90,3112.79
941.27,3095.14
941.64,3077.90
942.01,3061.08
942.38,3044.69
942.76,3028.71
943.13,3013.16
943.50,2998.05
943.87,2983.37
944.24,2969.13
944.61,2955.34
944.99,2942.00
945.36,2929.10
945.73,2916.63
946.10,2904.54
946.47,2892.82
946.84,2881.39
947.21,2870.21
947.59,2859.19
947.96,2848.25
948.33,2837.32
948.70,2826.31
949.07,2815.13
949.44,2803.73
949.81,2792.05
950.18,2780.05
950.55,2767.73
950.92,2755.12
951.29,2742.26
951.66,2729.24
952.03,2716.14
952.41,2703.08
952.78,2690.11
953.15,2677.29
953.52,2664.58
953.89,2651.90
954.26,2639.08
954.63,2625.91
955.00,2612.14
955.37,2597.52
955.74,2581.86
956.11,2565.04
956.48,2547.06
956.84,2528.02
957.21,2508.17
957.58,2487.83
957.95,2467.39
958.32,2447.22
958.69,2427.69
959.06,2409.06
959.43,2391.49
959.80,2375.00
960.17,2359.51
960.54,2344.86
960.91,2330.79
961.28,2317.04
961.64,2303.38
962.01,2289.60
962.38,2275.57
962.75,2261.23
963.12,2246.58
963.49,2231.69
963.86,2216.65
964.22,2201.55
964.59,2186.46
964.96,2171.45
965.33,2156.54
965.70,2141.73
966.07,2126.99
966.43,2112.32
966.80,2097.68
967.17,2083.09
967.54,2068.57
967.91,2054.18
968.27,2039.98
968.64,2026.05
969.01,2012.47
969.38,1999.31
969.74,1986.61
970.11,1974.40
970.48,1962.66
970.85,1951.34
971.21,1940.36
971.58,1929.62
971.95,1919.00
972.31,1908.36
972.68,1897.59
973.05,1886.57
973.42,1875.24
973.78,1863.56
974.15,1851.53
974.52,1839.21
974.88,1826.69
975.25,1814.07
975.62,1801.48
975.98,1789.03
976.35,1776.84
976.72,1764.98
977.08,1753.51
977.45,1742.44
977.81,1731.75
978.18,1721.37
978.55,1711.23
978.91,1701.24
979.28,1691.28
979.64,1681.27
980.01,1671.11
980.38,1660.75
980.74,1650.18
981.11,1639.40
981.47,1628.48
981.84,1617.50
982.20,1606.57
982.57,1595.82
982.93,1585.36
983.30,1575.26
983.66,1565.59
984.03,1556.36
984.39,1547.51
984.76,1538.98
985.12,1530.67
985.49,1522.46
985.85,1514.22
986.22,1505.85
986.58,1497.25
986.95,1488.35
987.31,1479.12
987.68,1469.57
988.04,1459.73
988.41,1449.67
988.77,1439.49
989.13,1429.30
989.50,1419.21
989.86,1409.33
990.23,1399.75
990.59,1390.52
990.96,1381.65
991.32,1373.09
991.68,1364.79
992.05,1356.61
992.41,1348.45
992.77,1340.17
993.14,1331.65
993.50,1322.82
993.86,1313.65
994.23,1304.12
994.59,1294.31
994.95,1284.31
995.32,1274.23
995.68,1264.22
996.04,1254.41
996.41,1244.93
996.77,1235.90
997.13,1227.38
997.50,1219.45
997.86,1212.12
998.22,1205.39
998.58,1199.23
998.95,1193.60
999.31,1188.43
999.67,1183.62
1000.03,1179.07
1000.40,1174.65
1000.76,1170.21
1001.12,1165.61
1001.48,1160.72
1001.84,1155.40
1002.21,1149.55
1002.57,1143.12
1002.93,1136.08
1003.29,1128.48
1003.65,1120.39
1004.02,1111.94
1004.38,1103.29
1004.74,1094.60
1005.10,1086.02
1005.46,1077.69
1005.82,1069.71
1006.19,1062.14
1006.55,1055.00
1006.91,1048.28
1007.27,1041.93
1007.63,1035.87
1007.99,1030.05
1008.35,1024.39
1008.71,1018.80
1009.07,1013.25
1009.43,1007.66
1009.80,1002.03
1010.16,996.34
1010.52,990.60
1010.88,984.83
1011.24,979.09
1011.60,973.44
1011.96,967.91
1012.32,962.57
1012.68,957.43
1013.04,952.51
1013.40,947.78
1013.76,943.19
1014.12,938.69
1014.48,934.22
1014.84,929.70
1015.20,925.11
1015.56,920.42
1015.92,915.63
1016.28,910.78
1016.64,905.91
1017.00,901.07
1017.36,896.29
1017.72,891.63
1018.07,887.08
1018.43,882.66
1018.79,878.33
1019.15,874.06
1019.51,869.81
1019.87,865.51
1020.23,861.13
1020.59,856.60
1020.95,851.91
1021.31,847.03
1021.66,841.97
1022.02,836.76
1022.38,831.46
1022.74,826.15
1023.10,820.92
1023.46,815.86
1023.81,811.05
1024.17,806.54
1024.53,802.34
1024.89,798.40
1025.25,794.65
1025.60,790.89
1025.96,786.93
1026.32,782.64
1026.68,777.93
1027.04,773.02
1027.39,765.17
1027.75,757.91
1028.11,751.54
1028.47,746.37
1028.82,752.48
1029.18,648.26
1029.54,762.64
1029.90,762.64
1030.25,762.64
