wavelength,counts
188.65,87.05
189.10,87.05
189.56,87.05
190.01,87.05
190.47,87.05
190.92,103.37
191.37,111.09
191.83,120.51
192.28,131.67
192.74,144.55
193.19,159.04
193.64,174.94
194.10,192.37
194.55,211.15
195.01,231.09
195.46,252.00
195.91,273.68
196.37,295.90
196.82,318.45
197.27,341.09
197.73,363.61
198.18,385.75
198.63,407.27
199.09,427.91
199.54,447.41
199.99,465.57
200.45,482.17
200.90,497.06
201.35,510.14
201.81,521.39
202.26,530.84
202.71,538.57
203.17,544.74
203.62,549.55
204.07,553.22
204.53,555.96
204.98,557.99
205.43,559.51
205.89,560.68
206.34,561.60
206.79,562.34
207.25,562.93
207.70,563.33
208.15,563.51
208.60,563.38
209.06,562.86
209.51,561.89
209.96,560.43
210.41,558.45
210.87,556.00
211.32,553.16
211.77,550.05
212.23,546.83
212.68,543.68
213.13,540.77
213.58,538.25
214.04,536.24
214.49,534.82
214.94,534.01
215.39,533.78
215.84,534.05
216.30,534.73
216.75,535.70
217.20,536.83
217.65,538.01
218.11,539.15
218.56,540.19
219.01,541.09
219.46,541.84
219.91,542.48
220.37,543.03
220.82,543.55
221.27,544.09
221.72,544.69
222.17,545.38
222.63,546.17
223.08,547.05
223.53,547.99
223.98,548.95
224.43,549.88
224.88,550.74
225.34,551.48
225.79,552.10
226.24,552.57
226.69,552.90
227.14,553.10
227.59,553.18
228.04,553.15
228.50,553.02
228.95,552.78
229.40,552.42
229.85,551.94
230.30,551.35
230.75,550.68
231.20,549.97
231.66,549.29
232.11,548.72
232.56,548.33
233.01,548.22
233.46,548.42
233.91,548.98
234.36,549.87
234.81,551.06
235.26,552.44
235.71,553.92
236.17,555.37
236.62,556.64
237.07,557.64
237.52,558.29
237.97,558.53
238.42,558.37
238.87,557.86
239.32,557.08
239.77,556.15
240.22,555.19
240.67,554.32
241.12,553.65
241.57,553.26
242.02,553.18
242.47,553.42
242.92,553.94
243.37,554.68
243.82,555.55
244.27,556.46
244.72,557.35
245.18,558.15
245.63,558.82
246.08,559.37
246.53,559.79
246.98,560.11
247.43,560.36
247.88,560.55
248.33,560.68
248.78,560.75
249.23,560.73
249.68,560.58
250.12,560.26
250.57,559.75
251.02,559.02
251.47,558.08
251.92,556.98
252.37,555.76
252.82,554.51
253.27,553.30
253.72,552.22
254.17,551.34
254.62,550.72
255.07,550.38
255.52,550.33
255.97,550.53
256.42,550.93
256.87,551.46
257.32,552.03
257.77,552.56
258.22,552.98
258.66,553.21
259.11,553.21
259.56,552.96
260.01,552.44
260.46,551.67
260.91,550.69
261.36,549.55
261.81,548.32
262.26,547.07
262.71,545.89
263.15,544.86
263.60,544.03
264.05,543.45
264.50,543.13
264.95,543.06
265.40,543.19
265.85,543.45
266.30,543.75
266.74,544.00
267.19,544.12
267.64,544.04
268.09,543.72
268.54,543.12
268.99,542.28
269.43,541.21
269.88,539.99
270.33,538.69
270.78,537.40
271.23,536.20
271.68,535.18
272.12,534.43
272.57,534.02
273.02,533.99
273.47,534.38
273.92,535.20
274.36,536.43
274.81,538.05
275.26,539.99
275.71,542.19
276.16,544.56
276.60,547.00
277.05,549.40
277.50,551.66
277.95,553.69
278.39,555.38
278.84,556.67
279.29,557.51
279.74,557.88
280.19,557.81
280.63,557.33
281.08,556.53
281.53,555.49
281.98,554.32
282.42,553.13
282.87,552.01
283.32,551.07
283.76,550.35
284.21,549.89
284.66,549.70
285.11,549.79
285.55,550.12
286.00,550.67
286.45,551.41
286.89,552.31
287.34,553.33
287.79,554.46
288.23,555.67
288.68,556.93
289.13,558.21
289.58,559.47
290.02,560.66
290.47,561.73
290.92,562.64
291.36,563.34
291.81,563.82
292.26,564.06
292.70,564.08
293.15,563.92
293.60,563.64
294.04,563.28
294.49,562.93
294.93,562.62
295.38,562.41
295.83,562.32
296.27,562.39
296.72,562.62
297.17,563.01
297.61,563.56
298.06,564.26
298.50,565.08
298.95,565.99
299.40,566.92
299.84,567.82
300.29,568.62
300.73,569.26
301.18,569.70
301.63,569.90
302.07,569.90
302.52,569.74
302.96,569.49
303.41,569.24
303.85,569.06
304.30,569.01
304.75,569.12
305.19,569.37
305.64,569.72
306.08,570.09
306.53,570.40
306.97,570.56
307.42,570.51
307.86,570.22
308.31,569.69
308.75,568.93
309.20,568.00
309.65,566.96
310.09,565.88
310.54,564.81
310.98,563.79
311.43,562.87
311.87,562.06
312.32,561.37
312.76,560.82
313.21,560.40
313.65,560.14
314.10,560.05
314.54,560.16
314.99,560.50
315.43,561.11
315.87,562.02
316.32,563.21
316.76,564.69
317.21,566.41
317.65,568.28
318.10,570.21
318.54,572.07
318.99,573.74
319.43,575.09
319.88,576.03
320.32,576.50
320.76,576.48
321.21,576.00
321.65,575.14
322.10,574.00
322.54,572.73
322.99,571.47
323.43,570.34
323.87,569.46
324.32,568.90
324.76,568.70
325.21,568.84
325.65,569.28
326.09,569.93
326.54,570.69
326.98,571.45
327.42,572.12
327.87,572.59
328.31,572.80
328.76,572.72
329.20,572.34
329.64,571.69
330.09,570.84
330.53,569.86
330.97,568.85
331.42,567.91
331.86,567.13
332.30,566.60
332.75,566.36
333.19,566.43
333.63,566.80
334.08,567.43
334.52,568.24
334.96,569.16
335.41,570.11
335.85,570.98
336.29,571.72
336.74,572.26
337.18,572.55
337.62,572.55
338.06,572.26
338.51,571.67
338.95,570.78
339.39,569.61
339.84,568.20
340.28,566.61
340.72,564.91
341.16,563.18
341.61,561.51
342.05,560.01
342.49,558.74
342.93,557.79
343.38,557.18
343.82,556.94
344.26,557.06
344.70,557.51
345.15,558.25
345.59,559.21
346.03,560.35
346.47,561.63
346.92,563.03
347.36,564.53
347.80,566.13
348.24,567.84
348.68,569.65
349.13,571.54
349.57,573.49
350.01,575.45
350.45,577.36
350.89,579.14
351.34,580.73
351.78,582.07
352.22,583.10
352.66,583.82
353.10,584.20
353.54,584.29
353.99,584.11
354.43,583.71
354.87,583.15
355.31,582.46
355.75,581.69
356.19,580.86
356.63,580.00
357.08,579.11
357.52,578.22
357.96,577.34
358.40,576.51
358.84,575.76
359.28,575.16
359.72,574.75
360.16,574.58
360.60,574.66
361.05,574.99
361.49,575.54
361.93,576.24
362.37,577.01
362.81,577.73
363.25,578.33
363.69,578.72
364.13,578.88
364.57,578.80
365.01,578.54
365.45,578.20
365.89,577.90
366.33,577.77
366.78,577.93
367.22,578.47
367.66,579.46
368.10,580.89
368.54,582.70
368.98,584.80
369.42,587.03
369.86,589.24
370.30,591.26
370.74,592.94
371.18,594.16
371.62,594.88
372.06,595.09
372.50,594.87
372.94,594.33
373.38,593.64
373.82,592.98
374.26,592.56
374.70,592.52
375.14,593.00
375.58,594.08
376.02,595.78
376.46,598.07
376.90,600.90
377.34,604.16
377.78,607.74
378.21,611.52
378.65,615.38
379.09,619.21
379.53,622.90
379.97,626.38
380.41,629.58
380.85,632.44
381.29,634.95
381.73,637.11
382.17,638.93
382.61,640.46
383.05,641.74
383.49,642.83
383.93,643.78
384.36,644.63
384.80,645.40
385.24,646.09
385.68,646.70
386.12,647.23
386.56,647.65
387.00,647.97
387.44,648.19
387.87,648.34
388.31,648.46
388.75,648.60
389.19,648.83
389.63,649.22
390.07,649.84
390.51,650.77
390.94,652.07
391.38,653.81
391.82,656.01
392.26,658.70
392.70,661.87
393.14,665.50
393.57,669.54
394.01,673.92
394.45,678.55
394.89,683.34
395.33,688.17
395.76,692.95
396.20,697.57
396.64,701.96
397.08,706.04
397.52,709.79
397.95,713.17
398.39,716.21
398.83,718.92
399.27,721.37
399.70,723.61
400.14,725.72
400.58,727.77
401.02,729.82
401.45,731.96
401.89,734.26
402.33,736.78
402.77,739.60
403.20,742.81
403.64,746.49
404.08,750.69
404.52,755.47
404.95,760.83
405.39,766.75
405.83,773.15
406.26,779.91
406.70,786.89
407.14,793.90
407.58,800.77
408.01,807.35
408.45,813.52
408.89,819.20
409.32,824.37
409.76,829.06
410.20,833.37
410.63,837.41
411.07,841.33
411.51,845.31
411.94,849.54
412.38,854.17
412.82,859.36
413.25,865.25
413.69,871.93
414.12,879.46
414.56,887.83
415.00,897.00
415.43,906.87
415.87,917.30
416.31,928.09
416.74,939.03
417.18,949.91
417.61,960.51
418.05,970.63
418.49,980.15
418.92,988.97
419.36,997.11
419.79,1004.62
420.23,1011.66
420.67,1018.43
421.10,1025.16
421.54,1032.11
421.97,1039.52
422.41,1047.60
422.84,1056.47
423.28,1066.21
423.71,1076.81
424.15,1088.20
424.59,1100.25
425.02,1112.78
425.46,1125.59
425.89,1138.51
426.33,1151.35
426.76,1164.00
427.20,1176.37
427.63,1188.44
428.07,1200.24
428.50,1211.84
428.94,1223.34
429.37,1234.86
429.81,1246.49
430.24,1258.33
430.68,1270.45
431.11,1282.86
431.55,1295.55
431.98,1308.47
432.42,1321.51
432.85,1334.56
433.28,1347.47
433.72,1360.10
434.15,1372.30
434.59,1383.97
435.02,1395.02
435.46,1405.43
435.89,1415.20
436.33,1424.40
436.76,1433.15
437.19,1441.57
437.63,1449.78
438.06,1457.90
438.50,1466.02
438.93,1474.18
439.37,1482.39
439.80,1490.62
440.23,1498.84
440.67,1507.02
441.10,1515.14
441.53,1523.21
441.97,1531.26
442.40,1539.36
442.84,1547.61
443.27,1556.08
443.70,1564.88
444.14,1574.06
444.57,1583.67
445.00,1593.72
445.44,1604.17
445.87,1614.98
446.30,1626.07
446.74,1637.36
447.17,1648.79
447.60,1660.30
448.04,1671.89
448.47,1683.58
448.90,1695.42
449.34,1707.45
449.77,1719.72
450.20,1732.25
450.64,1745.01
451.07,1757.91
451.50,1770.85
451.93,1783.69
452.37,1796.30
452.80,1808.61
453.23,1820.60
453.67,1832.34
454.10,1843.95
454.53,1855.65
454.96,1867.65
455.40,1880.19
455.83,1893.46
456.26,1907.58
456.69,1922.61
457.13,1938.55
457.56,1955.35
457.99,1972.94
458.42,1991.23
458.86,2010.12
459.29,2029.55
459.72,2049.44
460.15,2069.71
460.58,2090.27
461.02,2111.01
461.45,2131.81
461.88,2152.56
462.31,2173.19
462.74,2193.63
463.18,2213.93
463.61,2234.15
464.04,2254.43
464.47,2274.92
464.90,2295.78
465.33,2317.10
465.77,2338.93
466.20,2361.23
466.63,2383.93
467.06,2406.92
467.49,2430.09
467.92,2453.44
468.35,2477.05
468.78,2501.10
469.22,2525.90
469.65,2551.80
470.08,2579.18
470.51,2608.34
470.94,2639.48
471.37,2672.64
471.80,2707.73
472.23,2744.50
472.66,2782.68
473.10,2821.95
473.53,2862.08
473.96,2902.91
474.39,2944.41
474.82,2986.64
475.25,3029.69
475.68,3073.65
476.11,3118.50
476.54,3164.13
476.97,3210.31
477.40,3256.71
477.83,3302.97
478.26,3348.78
478.69,3393.95
479.12,3438.45
479.55,3482.45
479.98,3526.23
480.41,3570.17
480.84,3614.63
481.27,3659.86
481.70,3705.91
482.13,3752.62
482.56,3799.66
482.99,3846.56
483.42,3892.84
483.85,3938.12
484.28,3982.21
484.71,4025.19
485.14,4067.38
485.57,4109.28
486.00,4151.47
486.43,4194.43
486.86,4238.48
487.29,4283.62
487.72,4329.52
488.15,4375.56
488.58,4420.95
489.01,4464.88
489.44,4506.68
489.87,4546.00
490.30,4582.88
490.72,4617.76
491.15,4651.44
491.58,4684.87
492.01,4718.99
492.44,4754.54
492.87,4791.86
493.30,4830.82
493.73,4870.83
494.16,4910.95
494.59,4950.03
495.01,4987.00
495.44,5021.05
495.87,5051.82
496.30,5079.49
496.73,5104.77
497.16,5128.77
497.59,5152.81
498.01,5178.15
498.44,5205.78
498.87,5236.19
499.30,5269.33
499.73,5304.58
500.16,5340.87
500.58,5376.92
501.01,5411.45
501.44,5443.43
501.87,5472.31
502.30,5498.06
502.72,5521.24
503.15,5542.80
503.58,5563.99
504.01,5586.01
504.44,5609.88
504.86,5636.17
505.29,5664.92
505.72,5695.68
506.15,5727.55
506.57,5759.42
507.00,5790.14
507.43,5818.83
507.86,5844.98
508.28,5868.60
508.71,5890.20
509.14,5910.69
509.57,5931.20
509.99,5952.81
510.42,5976.35
510.85,6002.23
511.27,6030.25
511.70,6059.68
512.13,6089.33
512.56,6117.75
512.98,6143.49
513.41,6165.35
513.84,6182.66
514.26,6195.37
514.69,6204.14
515.12,6210.25
515.54,6215.44
515.97,6221.59
516.40,6230.49
516.82,6243.50
517.25,6261.32
517.68,6283.86
518.10,6310.25
518.53,6338.95
518.95,6367.95
519.38,6395.14
519.81,6418.63
520.23,6437.06
520.66,6449.86
521.09,6457.35
521.51,6460.75
521.94,6461.99
522.36,6463.43
522.79,6467.52
523.22,6476.38
523.64,6491.46
524.07,6513.29
524.49,6541.37
524.92,6574.18
525.34,6609.41
525.77,6644.27
526.20,6675.88
526.62,6701.72
527.05,6719.98
527.47,6729.88
527.90,6731.76
528.32,6727.11
528.75,6718.30
529.17,6708.30
529.60,6700.24
530.02,6696.97
530.45,6700.62
530.87,6712.28
531.30,6731.87
531.72,6758.07
532.15,6788.55
532.57,6820.26
533.00,6849.92
533.42,6874.42
533.85,6891.36
534.27,6899.37
534.70,6898.33
535.12,6889.46
535.55,6875.11
535.97,6858.51
536.40,6843.27
536.82,6832.94
537.25,6830.46
537.67,6837.78
538.09,6855.52
538.52,6882.92
538.94,6917.86
539.37,6957.16
539.79,6996.97
540.22,7033.25
540.64,7062.30
541.06,7081.26
541.49,7088.49
541.91,7083.75
542.34,7068.32
542.76,7044.83
543.18,7016.94
543.61,6988.91
544.03,6965.03
544.46,6949.13
544.88,6944.07
545.30,6951.32
545.73,6970.83
546.15,7000.93
546.57,7038.59
547.00,7079.78
547.42,7119.93
547.84,7154.54
548.27,7179.78
548.69,7192.91
549.11,7192.73
549.54,7179.68
549.96,7155.82
550.38,7124.63
550.81,7090.52
551.23,7058.34
551.65,7032.78
552.07,7017.79
552.50,7016.08
552.92,7028.78
553.34,7055.31
553.77,7093.43
554.19,7139.45
554.61,7188.71
555.03,7236.08
555.46,7276.57
555.88,7305.90
556.30,7321.00
556.72,7320.38
557.15,7304.30
557.57,7274.78
557.99,7235.33
558.41,7190.61
558.84,7145.90
559.26,7106.52
559.68,7077.25
560.10,7061.80
560.52,7062.43
560.95,7079.71
561.37,7112.44
561.79,7157.81
562.21,7211.71
562.63,7269.17
563.06,7324.88
563.48,7373.78
563.90,7411.59
564.32,7435.26
564.74,7443.36
565.16,7436.15
565.58,7415.69
566.01,7385.55
566.43,7350.49
566.85,7315.96
567.27,7287.51
567.69,7270.20
568.11,7268.04
568.53,7283.53
568.96,7317.37
569.38,7368.32
569.80,7433.34
570.22,7507.83
570.64,7586.12
571.06,7662.00
571.48,7729.39
571.90,7782.91
572.32,7818.46
572.74,7833.60
573.16,7827.82
573.58,7802.50
574.01,7760.84
574.43,7707.45
574.85,7647.91
575.27,7588.19
575.69,7534.05
576.11,7490.50
576.53,7461.32
576.95,7448.72
577.37,7453.18
577.79,7473.42
578.21,7506.63
578.63,7548.74
579.05,7594.85
579.47,7639.75
579.89,7678.41
580.31,7706.51
580.73,7720.83
581.15,7719.53
581.57,7702.36
581.99,7670.67
582.41,7627.22
582.83,7575.97
583.25,7521.63
583.67,7469.23
584.09,7423.66
584.51,7389.16
584.93,7368.98
585.34,7365.11
585.76,7378.08
586.18,7407.00
586.60,7449.68
587.02,7502.85
587.44,7562.53
587.86,7624.40
588.28,7684.18
588.70,7738.09
589.12,7783.10
589.54,7817.26
589.95,7839.81
590.37,7851.29
590.79,7853.45
591.21,7849.13
591.63,7841.94
592.05,7836.03
592.47,7835.65
592.89,7844.79
593.30,7866.82
593.72,7904.22
594.14,7958.28
594.56,8029.05
594.98,8115.31
595.40,8214.63
595.81,8323.61
596.23,8438.15
596.65,8553.73
597.07,8665.83
597.49,8770.20
597.90,8863.25
598.32,8942.27
598.74,9005.64
599.16,9052.98
599.58,9085.09
599.99,9103.97
600.41,9112.56
600.83,9114.49
601.25,9113.78
601.66,9114.45
602.08,9120.13
602.50,9133.77
602.92,9157.33
603.33,9191.64
603.75,9236.33
604.17,9289.84
604.59,9349.66
605.00,9412.48
605.42,9474.56
605.84,9532.01
606.25,9581.14
606.67,9618.78
607.09,9642.49
607.51,9650.82
607.92,9643.36
608.34,9620.84
608.76,9585.06
609.17,9538.79
609.59,9485.54
610.01,9429.35
610.42,9374.45
610.84,9324.97
611.26,9284.56
611.67,9256.19
612.09,9241.84
612.51,9242.41
612.92,9257.63
613.34,9286.17
613.75,9325.72
614.17,9373.25
614.59,9425.25
615.00,9478.06
615.42,9528.15
615.83,9572.34
616.25,9608.10
616.67,9633.66
617.08,9648.10
617.50,9651.44
617.91,9644.54
618.33,9629.08
618.75,9607.37
619.16,9582.21
619.58,9556.64
619.99,9533.76
620.41,9516.48
620.82,9507.29
621.24,9508.14
621.65,9520.28
622.07,9544.18
622.48,9579.57
622.90,9625.40
623.31,9680.03
623.73,9741.31
624.14,9806.76
624.56,9873.73
624.97,9939.57
625.39,10001.81
625.80,10058.25
626.22,10107.08
626.63,10146.97
627.05,10177.13
627.46,10197.32
627.88,10207.84
628.29,10209.57
628.71,10203.86
629.12,10192.52
629.54,10177.70
629.95,10161.77
630.37,10147.24
630.78,10136.53
631.19,10131.92
631.61,10135.33
632.02,10148.23
632.44,10171.52
632.85,10205.47
633.26,10249.68
633.68,10303.09
634.09,10364.04
634.51,10430.38
634.92,10499.59
635.33,10568.92
635.75,10635.62
636.16,10697.12
636.57,10751.19
636.99,10796.13
637.40,10830.88
637.82,10855.12
638.23,10869.27
638.64,10874.47
639.06,10872.46
639.47,10865.44
639.88,10855.91
640.30,10846.44
640.71,10839.53
641.12,10837.38
641.53,10841.82
641.95,10854.19
642.36,10875.27
642.77,10905.34
643.19,10944.10
643.60,10990.84
644.01,11044.39
644.42,11103.30
644.84,11165.85
645.25,11230.18
645.66,11294.34
646.08,11356.40
646.49,11414.52
646.90,11467.04
647.31,11512.57
647.73,11550.02
648.14,11578.76
648.55,11598.60
648.96,11609.89
649.37,11613.52
649.79,11610.88
650.20,11603.81
650.61,11594.52
651.02,11585.39
651.43,11578.86
651.85,11577.19
652.26,11582.36
652.67,11595.85
653.08,11618.59
653.49,11650.91
653.90,11692.51
654.32,11742.53
654.73,11799.65
655.14,11862.22
655.55,11928.32
655.96,11995.98
656.37,12063.24
656.78,12128.22
657.20,12189.29
657.61,12245.02
658.02,12294.32
658.43,12336.37
658.84,12370.72
659.25,12397.28
659.66,12416.27
660.07,12428.27
660.48,12434.17
660.90,12435.16
661.31,12432.62
661.72,12428.13
662.13,12423.36
662.54,12419.98
662.95,12419.56
663.36,12423.54
663.77,12433.11
664.18,12449.13
664.59,12472.15
665.00,12502.34
665.41,12539.47
665.82,12583.01
666.23,12632.07
666.64,12685.50
667.05,12741.94
667.46,12799.87
667.87,12857.69
668.28,12913.78
668.69,12966.57
669.10,13014.61
669.51,13056.61
669.92,13091.54
670.33,13118.65
670.74,13137.55
671.15,13148.18
671.56,13150.89
671.97,13146.42
672.38,13135.85
672.79,13120.60
673.20,13102.33
673.61,13082.89
674.02,13064.22
674.42,13048.27
674.83,13036.85
675.24,13031.60
675.65,13033.87
676.06,13044.61
676.47,13064.39
676.88,13093.26
677.29,13130.82
677.70,13176.18
678.11,13228.01
678.51,13284.63
678.92,13344.11
679.33,13404.34
679.74,13463.22
680.15,13518.72
680.56,13569.06
680.97,13612.77
681.37,13648.75
681.78,13676.32
682.19,13695.21
682.60,13705.55
683.01,13707.81
683.42,13702.78
683.82,13691.45
684.23,13675.03
684.64,13654.89
685.05,13632.51
685.45,13609.46
685.86,13587.38
686.27,13567.93
686.68,13552.73
687.09,13543.27
687.49,13540.88
687.90,13546.57
688.31,13561.02
688.72,13584.47
689.12,13616.71
689.53,13657.09
689.94,13704.54
690.35,13757.63
690.75,13814.71
691.16,13873.92
691.57,13933.39
691.97,13991.25
692.38,14045.75
692.79,14095.32
693.20,14138.58
693.60,14174.46
694.01,14202.16
694.42,14221.19
694.82,14231.42
695.23,14233.04
695.64,14226.60
696.04,14212.99
696.45,14193.36
696.86,14169.14
697.26,14141.92
697.67,14113.45
698.07,14085.50
698.48,14059.82
698.89,14038.07
699.29,14021.74
699.70,14012.10
700.11,14010.10
700.51,14016.39
700.92,14031.25
701.32,14054.57
701.73,14085.90
702.14,14124.40
702.54,14168.96
702.95,14218.23
703.35,14270.66
703.76,14324.68
704.16,14378.69
704.57,14431.16
704.97,14480.73
705.38,14526.20
705.79,14566.56
706.19,14601.02
706.60,14628.94
707.00,14649.87
707.41,14663.47
707.81,14669.56
708.22,14668.10
708.62,14659.20
709.03,14643.21
709.43,14620.74
709.84,14592.71
710.24,14560.36
710.65,14525.28
711.05,14489.31
711.46,14454.47
711.86,14422.87
712.27,14396.52
712.67,14377.23
713.07,14366.46
713.48,14365.26
713.88,14374.18
714.29,14393.29
714.69,14422.16
715.10,14459.98
715.50,14505.57
715.90,14557.49
716.31,14614.10
716.71,14673.66
717.12,14734.36
717.52,14794.43
717.92,14852.13
718.33,14905.88
718.73,14954.24
719.14,14996.01
719.54,15030.22
719.94,15056.16
720.35,15073.42
720.75,15081.87
721.15,15081.64
721.56,15073.12
721.96,15056.92
722.36,15033.84
722.77,15004.86
723.17,14971.10
723.57,14933.77
723.98,14894.14
724.38,14853.56
724.78,14813.35
725.19,14774.84
725.59,14739.31
725.99,14707.96
726.39,14681.89
726.80,14662.06
727.20,14649.29
727.60,14644.16
728.00,14647.05
728.41,14658.07
728.81,14677.07
729.21,14703.61
729.61,14736.97
730.02,14776.19
730.42,14820.09
730.82,14867.31
731.22,14916.38
731.63,14965.74
732.03,15013.82
732.43,15059.04
732.83,15099.91
733.23,15134.98
733.64,15162.95
734.04,15182.63
734.44,15193.05
734.84,15193.42
735.24,15183.28
735.64,15162.48
736.05,15131.27
736.45,15090.36
736.85,15040.85
737.25,14984.31
737.65,14922.62
738.05,14857.96
738.45,14792.63
738.86,14728.96
739.26,14669.12
739.66,14615.03
740.06,14568.25
740.46,14529.91
740.86,14500.69
741.26,14480.81
741.66,14470.08
742.06,14467.98
742.46,14473.72
742.87,14486.33
743.27,14504.78
743.67,14528.03
744.07,14555.11
744.47,14585.17
744.87,14617.45
745.27,14651.35
745.67,14686.33
746.07,14721.93
746.47,14757.75
746.87,14793.33
747.27,14828.24
747.67,14861.99
748.07,14894.08
748.47,14924.00
748.87,14951.26
749.27,14975.43
749.67,14996.16
750.07,15013.22
750.47,15026.51
750.87,15036.12
751.27,15042.27
751.67,15045.37
752.07,15045.96
752.47,15044.69
752.87,15042.29
753.27,15039.54
753.66,15037.17
754.06,15035.90
754.46,15036.36
754.86,15039.06
755.26,15044.41
755.66,15052.66
756.06,15063.93
756.46,15078.17
756.86,15095.17
757.26,15114.53
757.65,15135.70
758.05,15157.90
758.45,15180.24
758.85,15201.68
759.25,15221.11
759.65,15237.36
760.05,15249.30
760.44,15255.87
760.84,15256.09
761.24,15249.14
761.64,15234.32
762.04,15211.09
762.44,15179.02
762.83,15137.84
763.23,15087.37
763.63,15027.55
764.03,14958.43
764.43,14880.20
764.82,14793.17
765.22,14697.81
765.62,14594.77
766.02,14484.86
766.41,14369.09
766.81,14248.65
767.21,14124.91
767.61,13999.40
768.00,13873.75
768.40,13749.69
768.80,13628.97
769.20,13513.32
769.59,13404.41
769.99,13303.74
770.39,13212.65
770.79,13132.21
771.18,13063.19
771.58,13006.05
771.98,12960.86
772.37,12927.36
772.77,12904.90
773.17,12892.49
773.56,12888.90
773.96,12892.62
774.36,12902.03
774.75,12915.42
775.15,12931.10
775.55,12947.45
775.94,12963.00
776.34,12976.44
776.73,12986.67
777.13,12992.77
777.53,12994.03
777.92,12989.91
778.32,12979.99
778.72,12963.96
779.11,12941.59
779.51,12912.69
779.90,12877.07
780.30,12834.56
780.69,12784.98
781.09,12728.21
781.49,12664.17
781.88,12592.89
782.28,12514.59
782.67,12429.75
783.07,12339.13
783.46,12243.82
783.86,12145.26
784.25,12045.20
784.65,11945.61
785.04,11848.67
785.44,11756.54
785.83,11671.31
786.23,11594.87
786.62,11528.74
787.02,11474.04
787.41,11431.41
787.81,11400.96
788.20,11382.35
788.60,11374.74
788.99,11376.94
789.39,11387.44
789.78,11404.53
790.18,11426.41
790.57,11451.26
790.97,11477.34
791.36,11503.06
791.75,11527.04
792.15,11548.12
792.54,11565.37
792.94,11578.07
793.33,11585.69
793.72,11587.84
794.12,11584.25
794.51,11574.70
794.91,11559.00
795.30,11537.03
795.69,11508.65
796.09,11473.80
796.48,11432.46
796.87,11384.69
797.27,11330.65
797.66,11270.59
798.05,11204.91
798.45,11134.10
798.84,11058.77
799.23,10979.67
799.63,10897.64
800.02,10813.65
800.41,10728.75
800.81,10644.12
801.20,10561.00
801.59,10480.67
801.99,10404.46
802.38,10333.65
802.77,10269.44
803.16,10212.91
803.56,10164.95
803.95,10126.22
804.34,10097.16
804.73,10077.88
805.13,10068.27
805.52,10067.88
805.91,10076.04
806.30,10091.82
806.69,10114.04
807.09,10141.36
807.48,10172.29
807.87,10205.25
808.26,10238.61
808.66,10270.79
809.05,10300.31
809.44,10325.87
809.83,10346.42
810.22,10361.16
810.61,10369.58
811.01,10371.45
811.40,10366.75
811.79,10355.62
812.18,10338.28
812.57,10314.93
812.96,10285.74
813.35,10250.80
813.75,10210.09
814.14,10163.59
814.53,10111.28
814.92,10053.22
815.31,9989.63
815.70,9920.93
816.09,9847.74
816.48,9770.89
816.87,9691.37
817.26,9610.27
817.65,9528.74
818.04,9447.93
818.44,9368.92
818.83,9292.70
819.22,9220.20
819.61,9152.22
820.00,9089.47
820.39,9032.57
820.78,8982.06
821.17,8938.40
821.56,8901.91
821.95,8872.83
822.34,8851.26
822.73,8837.16
823.12,8830.34
823.51,8830.43
823.90,8836.94
824.29,8849.23
824.68,8866.51
825.07,8887.91
825.46,8912.45
825.85,8939.09
826.24,8966.72
826.62,8994.24
827.01,9020.50
827.40,9044.42
827.79,9064.96
828.18,9081.14
828.57,9092.15
828.96,9097.30
829.35,9096.05
829.74,9088.09
830.13,9073.24
830.52,9051.52
830.90,9023.10
831.29,8988.26
831.68,8947.42
832.07,8901.05
832.46,8849.73
832.85,8794.05
833.24,8734.66
833.62,8672.22
834.01,8607.42
834.40,8540.95
834.79,8473.47
835.18,8405.66
835.57,8338.18
835.95,8271.68
836.34,8206.82
836.73,8144.27
837.12,8084.73
837.51,8028.92
837.89,7977.55
838.28,7931.30
838.67,7890.81
839.06,7856.60
839.44,7829.05
839.83,7808.37
840.22,7794.58
840.61,7787.50
840.99,7786.79
841.38,7791.95
841.77,7802.39
842.16,7817.41
842.54,7836.30
842.93,7858.29
843.32,7882.64
843.70,7908.60
844.09,7935.43
844.48,7962.42
844.86,7988.88
845.25,8014.14
845.64,8037.56
846.02,8058.55
846.41,8076.55
846.80,8091.08
847.18,8101.69
847.57,8107.99
847.96,8109.68
848.34,8106.53
848.73,8098.40
849.12,8085.23
849.50,8067.05
849.89,8043.98
850.27,8016.23
850.66,7984.04
851.05,7947.73
851.43,7907.68
851.82,7864.29
852.20,7818.02
852.59,7769.35
852.97,7718.84
853.36,7667.09
853.75,7614.75
854.13,7562.52
854.52,7511.09
854.90,7461.16
855.29,7413.38
855.67,7368.35
856.06,7326.53
856.44,7288.29
856.83,7253.89
857.21,7223.44
857.60,7196.98
857.98,7174.48
858.37,7155.86
858.75,7141.04
859.14,7129.97
859.52,7122.62
859.91,7118.98
860.29,7119.04
860.68,7122.76
861.06,7130.04
861.44,7140.69
861.83,7154.40
862.21,7170.75
862.60,7189.25
862.98,7209.32
863.37,7230.37
863.75,7251.83
864.13,7273.18
864.52,7293.96
864.90,7313.76
865.29,7332.25
865.67,7349.11
866.05,7364.07
866.44,7376.86
866.82,7387.22
867.20,7394.93
867.59,7399.78
867.97,7401.63
868.35,7400.36
868.74,7395.90
869.12,7388.23
869.50,7377.31
869.89,7363.14
870.27,7345.70
870.65,7324.96
871.04,7300.94
871.42,7273.69
871.80,7243.35
872.19,7210.15
872.57,7174.46
872.95,7136.78
873.33,7097.73
873.72,7057.98
874.10,7018.28
874.48,6979.35
874.86,6941.89
875.25,6906.52
875.63,6873.78
876.01,6844.13
876.39,6817.96
876.77,6795.59
877.16,6777.31
877.54,6763.40
877.92,6754.10
878.30,6749.62
878.68,6750.13
879.07,6755.76
879.45,6766.57
879.83,6782.55
880.21,6803.62
880.59,6829.66
880.97,6860.51
881.36,6895.98
881.74,6935.94
882.12,6980.22
882.50,7028.72
882.88,7081.35
883.26,7138.02
883.64,7198.64
884.02,7263.06
884.41,7331.09
884.79,7402.45
885.17,7476.77
885.55,7553.55
885.93,7632.23
886.31,7712.11
886.69,7792.45
887.07,7872.45
887.45,7951.30
887.83,8028.19
888.21,8102.33
888.59,8173.02
888.97,8239.57
889.35,8301.39
889.73,8357.90
890.11,8408.58
890.49,8452.94
890.87,8490.49
891.25,8520.79
891.63,8543.42
892.01,8557.99
892.39,8564.21
892.77,8561.84
893.15,8550.75
893.53,8530.90
893.91,8502.36
894.29,8465.27
894.67,8419.90
895.05,8366.58
895.43,8305.75
895.81,8237.97
896.19,8163.88
896.57,8084.26
896.95,7999.99
897.32,7912.04
897.70,7821.44
898.08,7729.25
898.46,7636.46
898.84,7544.02
899.22,7452.73
899.60,7363.23
899.98,7276.01
900.35,7191.39
900.73,7109.54
901.11,7030.55
901.49,6954.43
901.87,6881.16
902.25,6810.71
902.63,6743.08
903.00,6678.27
903.38,6616.27
903.76,6557.05
904.14,6500.50
904.52,6446.48
904.89,6394.71
905.27,6344.87
905.65,6296.56
906.03,6249.38
906.40,6202.94
906.78,6156.90
907.16,6111.05
907.54,6065.30
907.91,6019.68
908.29,5974.37
908.67,5929.57
909.05,5885.57
909.42,5842.61
909.80,5800.85
910.18,5760.36
910.55,5721.09
910.93,5682.87
911.31,5645.43
911.68,5608.45
912.06,5571.61
912.44,5534.64
912.82,5497.33
913.19,5459.58
913.57,5421.42
913.94,5382.95
914.32,5344.36
914.70,5305.86
915.07,5267.70
915.45,5230.07
915.83,5193.13
916.20,5156.97
916.58,5121.63
916.95,5087.08
917.33,5053.24
917.71,5020.03
918.08,4987.32
918.46,4955.02
918.83,4923.05
919.21,4891.36
919.58,4859.97
919.96,4828.92
920.34,4798.29
920.71,4768.21
921.09,4738.82
921.46,4710.26
921.84,4682.66
922.21,4656.09
922.59,4630.61
922.96,4606.22
923.34,4582.87
923.71,4560.49
924.09,4538.97
924.46,4518.20
924.84,4498.06
925.21,4478.46
925.59,4459.31
925.96,4440.52
926.34,4422.04
926.71,4403.80
927.08,4385.78
927.46,4367.92
927.83,4350.18
928.21,4332.53
928.58,4314.92
928.96,4297.30
929.33,4279.64
929.70,4261.87
930.08,4243.95
930.45,4225.85
930.83,4207.53
931.20,4189.00
931.57,4170.26
931.95,4151.36
932.32,4132.36
932.69,4113.31
933.07,4094.27
933.44,4075.29
933.81,4056.38
934.19,4037.53
934.56,4018.69
934.93,3999.79
935.31,3980.73
935.68,3961.42
936.05,3941.74
936.43,3921.60
936.80,3900.94
937.17,3879.70
937.54,3857.90
937.92,3835.56
938.29,3812.75
938.66,3789.59
939.03,3766.20
939.41,3742.73
939.78,3719.32
940.15,3696.06
940.52,3673.03
940.90,3650.20
941.27,3627.54
941.64,3604.92
942.01,3582.19
942.38,3559.18
942.76,3535.74
943.13,3511.78
943.50,3487.26
943.87,3462.26
944.24,3436.91
944.61,3411.47
944.99,3386.21
945.36,3361.46
945.73,3337.50
946.10,3314.59
946.47,3292.91
946.84,3272.54
947.21,3253.47
947.59,3235.61
947.96,3218.79
948.33,3202.82
948.70,3187.46
949.07,3172.51
949.44,3157.75
949.81,3143.02
950.18,3128.19
950.55,3113.17
950.92,3097.90
951.29,3082.35
951.66,3066.55
952.03,3050.51
952.41,3034.32
952.78,3018.05
953.15,3001.80
953.52,2985.67
953.89,2969.75
954.26,2954.12
954.63,2938.84
955.00,2923.94
955.37,2909.39
955.74,2895.14
956.11,2881.08
956.48,2867.08
956.84,2852.96
957.21,2838.51
957.58,2823.52
957.95,2807.77
958.32,2791.06
958.69,2773.24
959.06,2754.22
959.43,2733.98
959.80,2712.63
960.17,2690.34
960.54,2667.37
960.91,2644.07
961.28,2620.78
961.64,2597.87
962.01,2575.62
962.38,2554.29
962.75,2533.98
963.12,2514.73
963.49,2496.45
963.86,2478.98
964.22,2462.09
964.59,2445.56
964.96,2429.15
965.33,2412.69
965.70,2396.06
966.07,2379.21
966.43,2362.20
966.80,2345.10
967.17,2328.05
967.54,2311.20
967.91,2294.67
968.27,2278.55
968.64,2262.88
969.01,2247.63
969.38,2232.74
969.74,2218.11
970.11,2203.59
970.48,2189.08
970.85,2174.45
971.21,2159.66
971.58,2144.66
971.95,2129.46
972.31,2114.12
972.68,2098.70
973.05,2083.29
973.42,2067.96
973.78,2052.78
974.15,2037.84
974.52,2023.18
974.88,2008.88
975.25,1994.97
975.62,1981.52
975.98,1968.58
976.35,1956.18
976.72,1944.34
977.08,1933.06
977.45,1922.28
977.81,1911.94
978.18,1901.94
978.55,1892.14
978.91,1882.41
979.28,1872.61
979.64,1862.62
980.01,1852.32
980.38,1841.63
980.74,1830.49
981.11,1818.89
981.47,1806.80
981.84,1794.27
982.20,1781.34
982.57,1768.06
982.93,1754.51
983.30,1740.78
983.66,1726.95
984.03,1713.09
984.39,1699.28
984.76,1685.60
985.12,1672.11
985.49,1658.86
985.85,1645.89
986.22,1633.25
986.58,1620.95
986.95,1608.99
987.31,1597.36
987.68,1586.06
988.04,1575.07
988.41,1564.38
988.77,1553.97
989.13,1543.85
989.50,1534.02
989.86,1524.46
990.23,1515.16
990.59,1506.06
990.96,1497.09
991.32,1488.13
991.68,1479.04
992.05,1469.66
992.41,1459.85
992.77,1449.46
993.14,1438.39
993.50,1426.60
993.86,1414.09
994.23,1400.94
994.59,1387.28
994.95,1373.29
995.32,1359.19
995.68,1345.18
996.04,1331.50
996.41,1318.31
996.77,1305.78
997.13,1293.99
997.50,1282.99
997.86,1272.79
998.22,1263.35
998.58,1254.60
998.95,1246.45
999.31,1238.81
999.67,1231.57
1000.03,1224.63
1000.40,1217.92
1000.76,1211.34
1001.12,1204.84
1001.48,1198.36
1001.84,1191.87
1002.21,1185.35
1002.57,1178.79
1002.93,1172.21
1003.29,1165.60
1003.65,1159.00
1004.02,1152.40
1004.38,1145.80
1004.74,1139.18
1005.10,1132.52
1005.46,1125.77
1005.82,1118.88
1006.19,1111.79
1006.55,1104.47
1006.91,1096.87
1007.27,1089.01
1007.63,1080.89
1007.99,1072.58
1008.35,1064.14
1008.71,1055.67
1009.07,1047.29
1009.43,1039.11
1009.80,1031.22
1010.16,1023.71
1010.52,1016.63
1010.88,1009.99
1011.24,1003.75
1011.60,997.84
1011.96,992.18
1012.32,986.64
1012.68,981.09
1013.04,975.40
1013.40,969.49
1013.76,963.28
1014.12,956.75
1014.48,949.91
1014.84,942.84
1015.20,935.63
1015.56,928.41
1015.92,921.29
1016.28,914.42
1016.64,907.88
1017.00,901.75
1017.36,896.06
1017.72,890.80
1018.07,885.91
1018.43,881.35
1018.79,877.01
1019.15,872.83
1019.51,868.73
1019.87,864.65
1020.23,860.55
1020.59,856.42
1020.95,852.24
1021.31,847.99
1021.66,843.69
1022.02,839.30
1022.38,834.80
1022.74,830.19
1023.10,825.42
1023.46,820.50
1023.81,815.43
1024.17,810.23
1024.53,804.96
1024.89,799.71
1025.25,794.58
1025.60,789.68
1025.96,785.16
1026.32,781.18
1026.68,777.89
1027.04,774.83
1027.39,772.61
1027.75,771.82
1028.11,772.35
1028.47,774.00
1028.82,755.02
1029.18,775.34
1029.54,798.20
1029.90,798.20
1030.25,798.20
