wavelength,counts
188.65,69.14
189.10,69.14
189.56,69.14
190.01,69.14
190.47,69.14
190.92,88.36
191.37,96.98
191.83,107.20
192.28,119.01
192.74,132.34
193.19,147.02
193.64,162.82
194.10,179.89
194.55,198.07
195.01,217.14
195.46,236.88
195.91,257.07
196.37,277.47
196.82,297.89
197.27,318.15
197.73,338.08
198.18,357.55
198.63,376.44
199.09,394.65
199.54,412.08
199.99,428.62
200.45,444.19
200.90,458.69
201.35,472.04
201.81,484.19
202.26,495.11
202.71,504.79
203.17,513.25
203.62,520.54
204.07,526.69
204.53,531.78
204.98,535.87
205.43,539.01
205.89,541.27
206.34,542.69
206.79,543.34
207.25,543.29
207.70,542.62
208.15,541.42
208.60,539.80
209.06,537.86
209.51,535.71
209.96,533.44
210.41,531.13
210.87,528.84
211.32,526.60
211.77,524.46
212.23,522.42
212.68,520.50
213.13,518.73
213.58,517.11
214.04,515.67
214.49,514.43
214.94,513.42
215.39,512.63
215.84,512.05
216.30,511.66
216.75,511.40
217.20,511.22
217.65,511.05
218.11,510.83
218.56,510.51
219.01,510.04
219.46,509.44
219.91,508.70
220.37,507.89
220.82,507.07
221.27,506.33
221.72,505.78
222.17,505.50
222.63,505.58
223.08,506.05
223.53,506.92
223.98,508.15
224.43,509.68
224.88,511.38
225.34,513.13
225.79,514.79
226.24,516.21
226.69,517.30
227.14,517.97
227.59,518.20
228.04,517.98
228.50,517.37
228.95,516.44
229.40,515.30
229.85,514.04
230.30,512.76
230.75,511.53
231.20,510.43
231.66,509.48
232.11,508.70
232.56,508.08
233.01,507.61
233.46,507.27
233.91,507.03
234.36,506.87
234.81,506.79
235.26,506.77
235.71,506.81
236.17,506.91
236.62,507.08
237.07,507.31
237.52,507.59
237.97,507.91
238.42,508.25
238.87,508.57
239.32,508.83
239.77,508.96
240.22,508.93
240.67,508.68
241.12,508.15
241.57,507.34
242.02,506.23
242.47,504.85
242.92,503.28
243.37,501.61
243.82,500.01
244.27,498.62
244.72,497.65
245.18,497.27
245.63,497.64
246.08,498.88
246.53,501.04
246.98,504.12
247.43,508.01
247.88,512.53
248.33,517.43
248.78,522.42
249.23,527.18
249.68,531.42
250.12,534.87
250.57,537.36
251.02,538.81
251.47,539.23
251.92,538.72
252.37,537.47
252.82,535.70
253.27,533.68
253.72,531.62
254.17,529.71
254.62,528.10
255.07,526.83
255.52,525.91
255.97,525.29
256.42,524.87
256.87,524.56
257.32,524.25
257.77,523.87
258.22,523.37
258.66,522.73
259.11,521.97
259.56,521.15
260.01,520.33
260.46,519.59
260.91,518.98
261.36,518.55
261.81,518.33
262.26,518.30
262.71,518.41
263.15,518.61
263.60,518.80
264.05,518.91
264.50,518.86
264.95,518.59
265.40,518.10
265.85,517.39
266.30,516.52
266.74,515.55
267.19,514.59
267.64,513.72
268.09,513.04
268.54,512.62
268.99,512.51
269.43,512.70
269.88,513.21
270.33,513.97
270.78,514.93
271.23,516.03
271.68,517.20
272.12,518.37
272.57,519.52
273.02,520.61
273.47,521.65
273.92,522.63
274.36,523.58
274.81,524.52
275.26,525.47
275.71,526.42
276.16,527.37
276.60,528.30
277.05,529.16
277.50,529.94
277.95,530.58
278.39,531.10
278.84,531.49
279.29,531.78
279.74,532.05
280.19,532.37
280.63,532.82
281.08,533.49
281.53,534.44
281.98,535.69
282.42,537.23
282.87,538.99
283.32,540.87
283.76,542.72
284.21,544.38
284.66,545.70
285.11,546.54
285.55,546.79
286.00,546.41
286.45,545.43
286.89,543.91
287.34,541.99
287.79,539.84
288.23,537.66
288.68,535.60
289.13,533.83
289.58,532.44
290.02,531.44
290.47,530.82
290.92,530.46
291.36,530.25
291.81,530.01
292.26,529.63
292.70,528.97
293.15,528.00
293.60,526.70
294.04,525.15
294.49,523.46
294.93,521.76
295.38,520.20
295.83,518.92
296.27,518.01
296.72,517.54
297.17,517.50
297.61,517.85
298.06,518.51
298.50,519.35
298.95,520.25
299.40,521.10
299.84,521.79
300.29,522.27
300.73,522.51
301.18,522.53
301.63,522.39
302.07,522.16
302.52,521.94
302.96,521.83
303.41,521.91
303.85,522.22
304.30,522.78
304.75,523.58
305.19,524.55
305.64,525.63
306.08,526.76
306.53,527.85
306.97,528.88
307.42,529.83
307.86,530.71
308.31,531.57
308.75,532.47
309.20,533.48
309.65,534.64
310.09,535.99
310.54,537.57
310.98,539.35
311.43,541.31
311.87,543.41
312.32,545.60
312.76,547.81
313.21,549.99
313.65,552.06
314.10,553.97
314.54,555.66
314.99,557.06
315.43,558.11
315.87,558.73
316.32,558.88
316.76,558.49
317.21,557.55
317.65,556.05
318.10,554.03
318.54,551.54
318.99,548.72
319.43,545.71
319.88,542.68
320.32,539.83
320.76,537.33
321.21,535.33
321.65,533.95
322.10,533.24
322.54,533.20
322.99,533.76
323.43,534.80
323.87,536.19
324.32,537.76
324.76,539.36
325.21,540.87
325.65,542.19
326.09,543.27
326.54,544.08
326.98,544.62
327.42,544.90
327.87,544.94
328.31,544.74
328.76,544.29
329.20,543.58
329.64,542.61
330.09,541.38
330.53,539.94
330.97,538.32
331.42,536.63
331.86,534.98
332.30,533.48
332.75,532.26
333.19,531.43
333.63,531.07
334.08,531.21
334.52,531.84
334.96,532.93
335.41,534.38
335.85,536.09
336.29,537.91
336.74,539.73
337.18,541.41
337.62,542.87
338.06,544.04
338.51,544.88
338.95,545.40
339.39,545.66
339.84,545.71
340.28,545.65
340.72,545.57
341.16,545.54
341.61,545.61
342.05,545.80
342.49,546.09
342.93,546.44
343.38,546.78
343.82,547.02
344.26,547.11
344.70,546.98
345.15,546.63
345.59,546.06
346.03,545.33
346.47,544.49
346.92,543.65
347.36,542.89
347.80,542.26
348.24,541.83
348.68,541.62
349.13,541.60
349.57,541.76
350.01,542.04
350.45,542.39
350.89,542.73
351.34,543.03
351.78,543.22
352.22,543.26
352.66,543.10
353.10,542.72
353.54,542.09
353.99,541.20
354.43,540.07
354.87,538.74
355.31,537.28
355.75,535.78
356.19,534.34
356.63,533.10
357.08,532.15
357.52,531.59
357.96,531.45
358.40,531.73
358.84,532.39
359.28,533.35
359.72,534.50
360.16,535.74
360.60,536.95
361.05,538.08
361.49,539.09
361.93,539.99
362.37,540.83
362.81,541.67
363.25,542.59
363.69,543.65
364.13,544.89
364.57,546.33
365.01,547.94
365.45,549.68
365.89,551.48
366.33,553.26
366.78,554.97
367.22,556.55
367.66,557.99
368.10,559.29
368.54,560.47
368.98,561.58
369.42,562.66
369.86,563.75
370.30,564.88
370.74,566.04
371.18,567.24
371.62,568.43
372.06,569.59
372.50,570.66
372.94,571.62
373.38,572.44
373.82,573.10
374.26,573.63
374.70,574.05
375.14,574.41
375.58,574.78
376.02,575.21
376.46,575.76
376.90,576.48
377.34,577.39
377.78,578.50
378.21,579.80
378.65,581.25
379.09,582.81
379.53,584.46
379.97,586.15
380.41,587.83
380.85,589.48
381.29,591.06
381.73,592.54
382.17,593.86
382.61,595.00
383.05,595.90
383.49,596.55
383.93,596.92
384.36,597.04
384.80,596.95
385.24,596.73
385.68,596.51
386.12,596.42
386.56,596.59
387.00,597.16
387.44,598.26
387.87,599.95
388.31,602.30
388.75,605.29
389.19,608.91
389.63,613.09
390.07,617.73
390.51,622.72
390.94,627.92
391.38,633.18
391.82,638.35
392.26,643.24
392.70,647.71
393.14,651.60
393.57,654.81
394.01,657.27
394.45,658.97
394.89,659.97
395.33,660.35
395.76,660.29
396.20,659.94
396.64,659.52
397.08,659.21
397.52,659.19
397.95,659.62
398.39,660.60
398.83,662.23
399.27,664.54
399.70,667.55
400.14,671.23
400.58,675.50
401.02,680.26
401.45,685.36
401.89,690.64
402.33,695.92
402.77,701.03
403.20,705.85
403.64,710.26
404.08,714.24
404.52,717.81
404.95,721.05
405.39,724.09
405.83,727.09
406.26,730.20
406.70,733.57
407.14,737.30
407.58,741.45
408.01,746.03
408.45,750.99
408.89,756.24
409.32,761.69
409.76,767.22
410.20,772.74
410.63,778.21
411.07,783.61
411.51,788.96
411.94,794.30
412.38,799.69
412.82,805.20
413.25,810.84
413.69,816.64
414.12,822.56
414.56,828.56
415.00,834.59
415.43,840.61
415.87,846.60
416.31,852.58
416.74,858.60
417.18,864.72
417.61,871.05
418.05,877.65
418.49,884.58
418.92,891.88
419.36,899.51
419.79,907.43
420.23,915.57
420.67,923.81
421.10,932.06
421.54,940.24
421.97,948.26
422.41,956.09
422.84,963.71
423.28,971.13
423.71,978.37
424.15,985.46
424.59,992.43
425.02,999.30
425.46,1006.08
425.89,1012.77
426.33,1019.37
426.76,1025.88
427.20,1032.30
427.63,1038.67
428.07,1045.05
428.50,1051.51
428.94,1058.14
429.37,1065.05
429.81,1072.30
430.24,1079.96
430.68,1088.07
431.11,1096.62
431.55,1105.58
431.98,1114.92
432.42,1124.59
432.85,1134.53
433.28,1144.72
433.72,1155.10
434.15,1165.61
434.59,1176.19
435.02,1186.74
435.46,1197.14
435.89,1207.27
436.33,1217.00
436.76,1226.23
437.19,1234.93
437.63,1243.10
438.06,1250.83
438.50,1258.25
438.93,1265.53
439.37,1272.84
439.80,1280.30
440.23,1288.01
440.67,1295.95
441.10,1304.06
441.53,1312.21
441.97,1320.26
442.40,1328.04
442.84,1335.42
443.27,1342.32
443.70,1348.73
444.14,1354.66
444.57,1360.21
445.00,1365.47
445.44,1370.57
445.87,1375.63
446.30,1380.76
446.74,1386.06
447.17,1391.62
447.60,1397.53
448.04,1403.87
448.47,1410.69
448.90,1418.04
449.34,1425.93
449.77,1434.35
450.20,1443.22
450.64,1452.43
451.07,1461.83
451.50,1471.25
451.93,1480.55
452.37,1489.59
452.80,1498.31
453.23,1506.73
453.67,1514.93
454.10,1523.06
454.53,1531.32
454.96,1539.91
455.40,1549.04
455.83,1558.83
456.26,1569.36
456.69,1580.61
457.13,1592.49
457.56,1604.86
457.99,1617.54
458.42,1630.39
458.86,1643.27
459.29,1656.14
459.72,1668.98
460.15,1681.86
460.58,1694.88
461.02,1708.12
461.45,1721.67
461.88,1735.58
462.31,1749.83
462.74,1764.38
463.18,1779.14
463.61,1794.02
464.04,1808.95
464.47,1823.88
464.90,1838.84
465.33,1853.89
465.77,1869.14
466.20,1884.72
466.63,1900.74
467.06,1917.32
467.49,1934.50
467.92,1952.31
468.35,1970.76
468.78,1989.86
469.22,2009.61
469.65,2030.11
470.08,2051.48
470.51,2073.89
470.94,2097.52
471.37,2122.57
471.80,2149.13
472.23,2177.22
472.66,2206.72
473.10,2237.39
473.53,2268.87
473.96,2300.78
474.39,2332.73
474.82,2364.46
475.25,2395.85
475.68,2426.99
476.11,2458.17
476.54,2489.84
476.97,2522.55
477.40,2556.79
477.83,2592.94
478.26,2631.16
478.69,2671.31
479.12,2712.96
479.55,2755.44
479.98,2797.95
480.41,2839.67
480.84,2879.91
481.27,2918.22
481.70,2954.48
482.13,2988.90
482.56,3021.97
482.99,3054.38
483.42,3086.85
483.85,3119.96
484.28,3154.10
484.71,3189.31
485.14,3225.30
485.57,3261.51
486.00,3297.21
486.43,3331.65
486.86,3364.25
487.29,3394.70
487.72,3423.06
488.15,3449.81
488.58,3475.78
489.01,3502.01
489.44,3529.61
489.87,3559.56
490.30,3592.53
490.72,3628.74
491.15,3667.93
491.58,3709.37
492.01,3751.95
492.44,3794.36
492.87,3835.31
493.30,3873.70
493.73,3908.83
494.16,3940.46
494.59,3968.88
495.01,3994.83
495.44,4019.35
495.87,4043.62
496.30,4068.72
496.73,4095.43
497.16,4124.13
497.59,4154.68
498.01,4186.46
498.44,4218.46
498.87,4249.45
499.30,4278.17
499.73,4303.57
500.16,4324.97
500.58,4342.20
501.01,4355.64
501.44,4366.20
501.87,4375.16
502.30,4384.02
502.72,4394.24
503.15,4407.05
503.58,4423.25
504.01,4443.11
504.44,4466.32
504.86,4492.05
505.29,4519.11
505.72,4546.13
506.15,4571.82
506.57,4595.16
507.00,4615.59
507.43,4633.13
507.86,4648.36
508.28,4662.35
508.71,4676.50
509.14,4692.31
509.57,4711.12
509.99,4733.92
510.42,4761.14
510.85,4792.58
511.27,4827.38
511.70,4864.18
512.13,4901.26
512.56,4936.77
512.98,4969.03
513.41,4996.71
513.84,5019.06
514.26,5035.96
514.69,5047.92
515.12,5056.05
515.54,5061.82
515.97,5066.90
516.40,5072.90
516.82,5081.17
517.25,5092.58
517.68,5107.47
518.10,5125.55
518.53,5146.00
518.95,5167.56
519.38,5188.72
519.81,5207.95
520.23,5223.90
520.66,5235.62
521.09,5242.69
521.51,5245.33
521.94,5244.37
522.36,5241.18
522.79,5237.52
523.22,5235.29
523.64,5236.35
524.07,5242.18
524.49,5253.77
524.92,5271.41
525.34,5294.68
525.77,5322.45
526.20,5353.02
526.62,5384.34
527.05,5414.25
527.47,5440.79
527.90,5462.38
528.32,5478.12
528.75,5487.82
529.17,5492.08
529.60,5492.19
530.02,5489.98
530.45,5487.55
530.87,5487.03
531.30,5490.28
531.72,5498.65
532.15,5512.83
532.57,5532.74
533.00,5557.55
533.42,5585.78
533.85,5615.46
534.27,5644.39
534.70,5670.43
535.12,5691.67
535.55,5706.74
535.97,5714.93
536.40,5716.26
536.82,5711.53
537.25,5702.17
537.67,5690.14
538.09,5677.68
538.52,5667.06
538.94,5660.35
539.37,5659.17
539.79,5664.49
540.22,5676.55
540.64,5694.80
541.06,5717.96
541.49,5744.17
541.91,5771.19
542.34,5796.68
542.76,5818.43
543.18,5834.63
543.61,5844.12
544.03,5846.48
544.46,5842.12
544.88,5832.22
545.30,5818.63
545.73,5803.64
546.15,5789.75
546.57,5779.38
547.00,5774.61
547.42,5776.94
547.84,5787.11
548.27,5805.04
548.69,5829.85
549.11,5859.90
549.54,5893.01
549.96,5926.70
550.38,5958.43
550.81,5985.89
551.23,6007.22
551.65,6021.25
552.07,6027.58
552.50,6026.63
552.92,6019.61
553.34,6008.36
553.77,5995.20
554.19,5982.63
554.61,5973.11
555.03,5968.81
555.46,5971.35
555.88,5981.65
556.30,5999.87
556.72,6025.33
557.15,6056.61
557.57,6091.71
557.99,6128.19
558.41,6163.45
558.84,6194.98
559.26,6220.60
559.68,6238.66
560.10,6248.24
560.52,6249.25
560.95,6242.39
561.37,6229.16
561.79,6211.69
562.21,6192.51
562.63,6174.38
563.06,6159.92
563.48,6151.44
563.90,6150.70
564.32,6158.69
564.74,6175.63
565.16,6200.85
565.58,6232.97
566.01,6269.95
566.43,6309.32
566.85,6348.40
567.27,6384.55
567.69,6415.39
568.11,6438.96
568.53,6453.98
568.96,6459.83
569.38,6456.68
569.80,6445.41
570.22,6427.55
570.64,6405.16
571.06,6380.62
571.48,6356.45
571.90,6335.07
572.32,6318.61
572.74,6308.74
573.16,6306.46
573.58,6312.10
574.01,6325.21
574.43,6344.63
574.85,6368.58
575.27,6394.85
575.69,6420.95
576.11,6444.37
576.53,6462.80
576.95,6474.34
577.37,6477.68
577.79,6472.25
578.21,6458.25
578.63,6436.69
579.05,6409.29
579.47,6378.35
579.89,6346.56
580.31,6316.75
580.73,6291.68
581.15,6273.79
581.57,6264.96
581.99,6266.38
582.41,6278.45
582.83,6300.74
583.25,6332.04
583.67,6370.47
584.09,6413.68
584.51,6459.00
584.93,6503.71
585.34,6545.23
585.76,6581.32
586.18,6610.29
586.60,6631.06
587.02,6643.28
587.44,6647.33
587.86,6644.28
588.28,6635.83
588.70,6624.17
589.12,6611.79
589.54,6601.32
589.95,6595.32
590.37,6596.06
590.79,6605.36
591.21,6624.42
591.63,6653.76
592.05,6693.16
592.47,6741.66
592.89,6797.66
593.30,6859.03
593.72,6923.28
594.14,6987.74
594.56,7049.77
594.98,7106.93
595.40,7157.15
595.81,7198.89
596.23,7231.23
596.65,7253.91
597.07,7267.37
597.49,7272.68
597.90,7271.49
598.32,7265.90
598.74,7258.27
599.16,7251.07
599.58,7246.68
599.99,7247.16
600.41,7254.12
600.83,7268.55
601.25,7290.77
601.66,7320.37
602.08,7356.30
602.50,7396.95
602.92,7440.29
603.33,7484.10
603.75,7526.10
604.17,7564.18
604.59,7596.53
605.00,7621.75
605.42,7638.92
605.84,7647.64
606.25,7648.05
606.67,7640.72
607.09,7626.69
607.51,7607.32
607.92,7584.22
608.34,7559.21
608.76,7534.13
609.17,7510.79
609.59,7490.87
610.01,7475.80
610.42,7466.69
610.84,7464.30
611.26,7468.97
611.67,7480.62
612.09,7498.79
612.51,7522.68
612.92,7551.20
613.34,7583.04
613.75,7616.75
614.17,7650.81
614.59,7683.71
615.00,7714.04
615.42,7740.52
615.83,7762.10
616.25,7777.99
616.67,7787.77
617.08,7791.37
617.50,7789.12
617.91,7781.74
618.33,7770.35
618.75,7756.34
619.16,7741.35
619.58,7727.14
619.99,7715.43
620.41,7707.83
620.82,7705.68
621.24,7709.97
621.65,7721.29
622.07,7739.75
622.48,7765.02
622.90,7796.37
623.31,7832.70
623.73,7872.64
624.14,7914.65
624.56,7957.11
624.97,7998.39
625.39,8036.99
625.80,8071.57
626.22,8101.02
626.63,8124.54
627.05,8141.67
627.46,8152.33
627.88,8156.81
628.29,8155.77
628.71,8150.19
629.12,8141.34
629.54,8130.69
629.95,8119.82
630.37,8110.30
630.78,8103.61
631.19,8101.03
631.61,8103.57
632.02,8111.89
632.44,8126.30
632.85,8146.73
633.26,8172.73
633.68,8203.55
634.09,8238.15
634.51,8275.28
634.92,8313.55
635.33,8351.54
635.75,8387.85
636.16,8421.20
636.57,8450.52
636.99,8475.04
637.40,8494.28
637.82,8508.16
638.23,8516.93
638.64,8521.19
639.06,8521.83
639.47,8519.89
639.88,8516.56
640.30,8513.01
640.71,8510.31
641.12,8509.41
641.53,8511.04
641.95,8515.76
642.36,8523.87
642.77,8535.53
643.19,8550.75
643.60,8569.41
644.01,8591.32
644.42,8616.24
644.84,8643.90
645.25,8673.94
645.66,8706.00
646.08,8739.64
646.49,8774.37
646.90,8809.62
647.31,8844.77
647.73,8879.12
648.14,8911.98
648.55,8942.63
648.96,8970.43
649.37,8994.84
649.79,9015.47
650.20,9032.17
650.61,9045.06
651.02,9054.51
651.43,9061.20
651.85,9066.03
652.26,9070.09
652.67,9074.55
653.08,9080.58
653.49,9089.25
653.90,9101.45
654.32,9117.82
654.73,9138.72
655.14,9164.20
655.55,9194.04
655.96,9227.74
656.37,9264.61
656.78,9303.76
657.20,9344.24
657.61,9385.03
658.02,9425.11
658.43,9463.57
658.84,9499.60
659.25,9532.59
659.66,9562.10
660.07,9587.98
660.48,9610.28
660.90,9629.30
661.31,9645.51
661.72,9659.57
662.13,9672.20
662.54,9684.16
662.95,9696.20
663.36,9708.97
663.77,9723.03
664.18,9738.80
664.59,9756.55
665.00,9776.44
665.41,9798.53
665.82,9822.76
666.23,9849.04
666.64,9877.23
667.05,9907.15
667.46,9938.57
667.87,9971.22
668.28,10004.78
668.69,10038.83
669.10,10072.91
669.51,10106.50
669.92,10139.04
670.33,10169.97
670.74,10198.74
671.15,10224.89
671.56,10248.03
671.97,10267.87
672.38,10284.24
672.79,10297.05
673.20,10306.33
673.61,10312.19
674.02,10314.83
674.42,10314.57
674.83,10311.79
675.24,10306.99
675.65,10300.75
676.06,10293.71
676.47,10286.55
676.88,10279.94
677.29,10274.51
677.70,10270.81
678.11,10269.29
678.51,10270.27
678.92,10273.95
679.33,10280.44
679.74,10289.74
680.15,10301.75
680.56,10316.34
680.97,10333.28
681.37,10352.28
681.78,10372.97
682.19,10394.90
682.60,10417.56
683.01,10440.37
683.42,10462.73
683.82,10484.04
684.23,10503.74
684.64,10521.37
685.05,10536.57
685.45,10549.10
685.86,10558.91
686.27,10566.07
686.68,10570.77
687.09,10573.35
687.49,10574.20
687.90,10573.77
688.31,10572.54
688.72,10570.98
689.12,10569.55
689.53,10568.64
689.94,10568.62
690.35,10569.81
690.75,10572.45
691.16,10576.78
691.57,10582.95
691.97,10591.07
692.38,10601.19
692.79,10613.30
693.20,10627.30
693.60,10643.02
694.01,10660.20
694.42,10678.55
694.82,10697.70
695.23,10717.31
695.64,10737.03
696.04,10756.54
696.45,10775.56
696.86,10793.84
697.26,10811.15
697.67,10827.26
698.07,10841.93
698.48,10854.87
698.89,10865.80
699.29,10874.42
699.70,10880.47
700.11,10883.79
700.51,10884.34
700.92,10882.24
701.32,10877.82
701.73,10871.59
702.14,10864.24
702.54,10856.55
702.95,10849.41
703.35,10843.65
703.76,10840.06
704.16,10839.30
704.57,10841.87
704.97,10848.07
705.38,10858.06
705.79,10871.80
706.19,10889.11
706.60,10909.71
707.00,10933.17
707.41,10959.03
707.81,10986.73
708.22,11015.65
708.62,11045.14
709.03,11074.55
709.43,11103.19
709.84,11130.41
710.24,11155.62
710.65,11178.29
711.05,11198.00
711.46,11214.42
711.86,11227.36
712.27,11236.70
712.67,11242.47
713.07,11244.78
713.48,11243.82
713.88,11239.88
714.29,11233.33
714.69,11224.61
715.10,11214.23
715.50,11202.78
715.90,11190.85
716.31,11179.07
716.71,11168.05
717.12,11158.37
717.52,11150.53
717.92,11144.96
718.33,11142.00
718.73,11141.91
719.14,11144.84
719.54,11150.89
719.94,11160.04
720.35,11172.21
720.75,11187.24
721.15,11204.87
721.56,11224.73
721.96,11246.40
722.36,11269.34
722.77,11292.98
723.17,11316.69
723.57,11339.85
723.98,11361.86
724.38,11382.15
724.78,11400.22
725.19,11415.62
725.59,11427.98
725.99,11436.99
726.39,11442.40
726.80,11444.04
727.20,11441.80
727.60,11435.70
728.00,11425.82
728.41,11412.42
728.81,11395.86
729.21,11376.65
729.61,11355.44
730.02,11332.96
730.42,11309.98
730.82,11287.32
731.22,11265.72
731.63,11245.88
732.03,11228.36
732.43,11213.60
732.83,11201.91
733.23,11193.44
733.64,11188.21
734.04,11186.12
734.44,11186.97
734.84,11190.42
735.24,11196.06
735.64,11203.38
736.05,11211.83
736.45,11220.79
736.85,11229.65
737.25,11237.83
737.65,11244.81
738.05,11250.12
738.45,11253.43
738.86,11254.44
739.26,11252.98
739.66,11248.87
740.06,11241.96
740.46,11232.10
740.86,11219.07
741.26,11202.68
741.66,11182.72
742.06,11159.05
742.46,11131.63
742.87,11100.60
743.27,11066.31
743.67,11029.34
744.07,10990.48
744.47,10950.73
744.87,10911.16
745.27,10872.90
745.67,10837.00
746.07,10804.40
746.47,10775.83
746.87,10751.80
747.27,10732.63
747.67,10718.41
748.07,10709.11
748.47,10704.61
748.87,10704.73
749.27,10709.28
749.67,10718.08
750.07,10730.93
750.47,10747.61
750.87,10767.83
751.27,10791.19
751.67,10817.18
752.07,10845.14
752.47,10874.26
752.87,10903.61
753.27,10932.20
753.66,10958.98
754.06,10982.95
754.46,11003.18
754.86,11018.87
755.26,11029.40
755.66,11034.33
756.06,11033.43
756.46,11026.68
756.86,11014.24
757.26,10996.47
757.65,10973.85
758.05,10946.93
758.45,10916.36
758.85,10882.75
759.25,10846.70
759.65,10808.73
760.05,10769.29
760.44,10728.75
760.84,10687.41
761.24,10645.51
761.64,10603.29
762.04,10561.01
762.44,10518.95
762.83,10477.43
763.23,10436.82
763.63,10397.54
764.03,10359.98
764.43,10324.52
764.82,10291.49
765.22,10261.13
765.62,10233.56
766.02,10208.78
766.41,10186.64
766.81,10166.88
767.21,10149.10
767.61,10132.83
768.00,10117.51
768.40,10102.55
768.80,10087.36
769.20,10071.39
769.59,10054.14
769.99,10035.19
770.39,10014.21
770.79,9990.99
771.18,9965.39
771.58,9937.36
771.98,9906.94
772.37,9874.18
772.77,9839.20
773.17,9802.13
773.56,9763.11
773.96,9722.30
774.36,9679.87
774.75,9635.98
775.15,9590.84
775.55,9544.65
775.94,9497.66
776.34,9450.14
776.73,9402.43
777.13,9354.93
777.53,9308.10
777.92,9262.48
778.32,9218.70
778.72,9177.43
779.11,9139.37
779.51,9105.21
779.90,9075.58
780.30,9051.00
780.69,9031.83
781.09,9018.24
781.49,9010.15
781.88,9007.29
782.28,9009.13
782.67,9014.98
783.07,9024.00
783.46,9035.23
783.86,9047.68
784.25,9060.36
784.65,9072.32
785.04,9082.72
785.44,9090.81
785.83,9095.96
786.23,9097.69
786.62,9095.61
787.02,9089.46
787.41,9079.09
787.81,9064.41
788.20,9045.42
788.60,9022.17
788.99,8994.81
789.39,8963.50
789.78,8928.50
790.18,8890.11
790.57,8848.69
790.97,8804.65
791.36,8758.46
791.75,8710.62
792.15,8661.70
792.54,8612.30
792.94,8563.08
793.33,8514.73
793.72,8467.95
794.12,8423.47
794.51,8381.95
794.91,8344.00
795.30,8310.10
795.69,8280.54
796.09,8255.46
796.48,8234.77
796.87,8218.19
797.27,8205.26
797.66,8195.41
798.05,8188.02
798.45,8182.44
798.84,8178.07
799.23,8174.40
799.63,8171.05
800.02,8167.72
800.41,8164.26
800.81,8160.56
801.20,8156.57
801.59,8152.23
801.99,8147.47
802.38,8142.13
802.77,8135.96
803.16,8128.64
803.56,8119.78
803.95,8108.94
804.34,8095.66
804.73,8079.52
805.13,8060.17
805.52,8037.34
805.91,8010.87
806.30,7980.72
806.69,7946.98
807.09,7909.82
807.48,7869.49
807.87,7826.34
808.26,7780.74
808.66,7733.18
809.05,7684.16
809.44,7634.24
809.83,7584.06
810.22,7534.23
810.61,7485.40
811.01,7438.17
811.40,7393.07
811.79,7350.53
812.18,7310.86
812.57,7274.25
812.96,7240.78
813.35,7210.41
813.75,7183.05
814.14,7158.55
814.53,7136.75
814.92,7117.47
815.31,7100.54
815.70,7085.79
816.09,7073.06
816.48,7062.18
816.87,7052.99
817.26,7045.33
817.65,7039.02
818.04,7033.91
818.44,7029.80
818.83,7026.50
819.22,7023.78
819.61,7021.37
820.00,7018.93
820.39,7016.10
820.78,7012.44
821.17,7007.50
821.56,7000.81
821.95,6991.94
822.34,6980.47
822.73,6966.10
823.12,6948.61
823.51,6927.88
823.90,6903.92
824.29,6876.84
824.68,6846.83
825.07,6814.14
825.46,6779.10
825.85,6742.06
826.24,6703.37
826.62,6663.39
827.01,6622.48
827.40,6580.96
827.79,6539.14
828.18,6497.29
828.57,6455.69
828.96,6414.57
829.35,6374.18
829.74,6334.79
830.13,6296.67
830.52,6260.16
830.90,6225.62
831.29,6193.45
831.68,6164.03
832.07,6137.77
832.46,6115.00
832.85,6095.97
833.24,6080.80
833.62,6069.48
834.01,6061.84
834.40,6057.56
834.79,6056.21
835.18,6057.27
835.57,6060.18
835.95,6064.38
836.34,6069.35
836.73,6074.67
837.12,6079.99
837.51,6085.06
837.89,6089.70
838.28,6093.80
838.67,6097.26
839.06,6099.99
839.44,6101.87
839.83,6102.76
840.22,6102.52
840.61,6100.99
840.99,6098.04
841.38,6093.58
841.77,6087.57
842.16,6080.02
842.54,6070.98
842.93,6060.53
843.32,6048.76
843.70,6035.74
844.09,6021.55
844.48,6006.24
844.86,5989.85
845.25,5972.46
845.64,5954.14
846.02,5935.00
846.41,5915.21
846.80,5894.93
847.18,5874.38
847.57,5853.75
847.96,5833.26
848.34,5813.09
848.73,5793.42
849.12,5774.39
849.50,5756.17
849.89,5738.87
850.27,5722.63
850.66,5707.58
851.05,5693.85
851.43,5681.53
851.82,5670.72
852.20,5661.48
852.59,5653.85
852.97,5647.83
853.36,5643.41
853.75,5640.57
854.13,5639.25
854.52,5639.41
854.90,5640.97
855.29,5643.87
855.67,5647.99
856.06,5653.21
856.44,5659.36
856.83,5666.22
857.21,5673.55
857.60,5681.10
857.98,5688.61
858.37,5695.82
858.75,5702.54
859.14,5708.61
859.52,5713.92
859.91,5718.43
860.29,5722.12
860.68,5725.01
861.06,5727.09
861.44,5728.36
861.83,5728.78
862.21,5728.26
862.60,5726.71
862.98,5724.00
863.37,5720.02
863.75,5714.65
864.13,5707.83
864.52,5699.53
864.90,5689.77
865.29,5678.59
865.67,5666.10
866.05,5652.43
866.44,5637.72
866.82,5622.14
867.20,5605.86
867.59,5589.10
867.97,5572.07
868.35,5554.97
868.74,5538.04
869.12,5521.50
869.50,5505.54
869.89,5490.32
870.27,5475.97
870.65,5462.56
871.04,5450.14
871.42,5438.70
871.80,5428.24
872.19,5418.73
872.57,5410.16
872.95,5402.54
873.33,5395.91
873.72,5390.32
874.10,5385.84
874.48,5382.58
874.86,5380.62
875.25,5380.07
875.63,5381.02
876.01,5383.58
876.39,5387.81
876.77,5393.79
877.16,5401.57
877.54,5411.20
877.92,5422.66
878.30,5435.95
878.68,5450.98
879.07,5467.67
879.45,5485.89
879.83,5505.49
880.21,5526.32
880.59,5548.23
880.97,5571.14
881.36,5594.98
881.74,5619.75
882.12,5645.51
882.50,5672.36
882.88,5700.45
883.26,5729.92
883.64,5760.90
884.02,5793.46
884.41,5827.60
884.79,5863.22
885.17,5900.11
885.55,5937.93
885.93,5976.23
886.31,6014.47
886.69,6052.03
887.07,6088.23
887.45,6122.43
887.83,6154.01
888.21,6182.45
888.59,6207.36
888.97,6228.50
889.35,6245.81
889.73,6259.36
890.11,6269.40
890.49,6276.24
890.87,6280.25
891.25,6281.82
891.63,6281.25
892.01,6278.81
892.39,6274.62
892.77,6268.75
893.15,6261.12
893.53,6251.59
893.91,6239.97
894.29,6226.02
894.67,6209.51
895.05,6190.25
895.43,6168.08
895.81,6142.92
896.19,6114.78
896.57,6083.75
896.95,6050.00
897.32,6013.78
897.70,5975.42
898.08,5935.24
898.46,5893.63
898.84,5850.94
899.22,5807.53
899.60,5763.74
899.98,5719.87
900.35,5676.22
900.73,5633.07
901.11,5590.64
901.49,5549.16
901.87,5508.75
902.25,5469.50
902.63,5431.41
903.00,5394.37
903.38,5358.23
903.76,5322.74
904.14,5287.64
904.52,5252.62
904.89,5217.42
905.27,5181.81
905.65,5145.60
906.03,5108.70
906.40,5071.03
906.78,5032.61
907.16,4993.46
907.54,4953.64
907.91,4913.24
908.29,4872.35
908.67,4831.04
909.05,4789.44
909.42,4747.62
909.80,4705.72
910.18,4663.82
910.55,4622.06
910.93,4580.55
911.31,4539.41
911.68,4498.77
912.06,4458.77
912.44,4419.54
912.82,4381.25
913.19,4344.05
913.57,4308.14
913.94,4273.70
914.32,4240.95
914.70,4210.08
915.07,4181.28
915.45,4154.69
915.83,4130.40
916.20,4108.42
916.58,4088.70
916.95,4071.06
917.33,4055.27
917.71,4041.01
918.08,4027.94
918.46,4015.70
918.83,4003.96
919.21,3992.44
919.58,3980.95
919.96,3969.36
920.34,3957.62
920.71,3945.74
921.09,3933.76
921.46,3921.75
921.84,3909.75
922.21,3897.80
922.59,3885.91
922.96,3874.12
923.34,3862.44
923.71,3850.88
924.09,3839.49
924.46,3828.31
924.84,3817.37
925.21,3806.69
925.59,3796.22
925.96,3785.87
926.34,3775.48
926.71,3764.85
927.08,3753.74
927.46,3741.88
927.83,3729.06
928.21,3715.09
928.58,3699.89
928.96,3683.47
929.33,3665.92
929.70,3647.43
930.08,3628.22
930.45,3608.56
930.83,3588.67
931.20,3568.76
931.57,3548.92
931.95,3529.21
932.32,3509.56
932.69,3489.88
933.07,3469.99
933.44,3449.72
933.81,3428.89
934.19,3407.39
934.56,3385.15
934.93,3362.17
935.31,3338.52
935.68,3314.36
936.05,3289.87
936.43,3265.26
936.80,3240.76
937.17,3216.55
937.54,3192.79
937.92,3169.58
938.29,3146.98
938.66,3124.99
939.03,3103.63
939.41,3082.90
939.78,3062.84
940.15,3043.56
940.52,3025.18
940.90,3007.90
941.27,2991.90
941.64,2977.37
942.01,2964.41
942.38,2953.06
942.76,2943.23
943.13,2934.69
943.50,2927.12
943.87,2920.09
944.24,2913.16
944.61,2905.85
944.99,2897.79
945.36,2888.65
945.73,2878.25
946.10,2866.56
946.47,2853.64
946.84,2839.68
947.21,2824.92
947.59,2809.68
947.96,2794.24
948.33,2778.90
948.70,2763.91
949.07,2749.43
949.44,2735.61
949.81,2722.49
950.18,2710.07
950.55,2698.29
950.92,2687.03
951.29,2676.13
951.66,2665.41
952.03,2654.67
952.41,2643.71
952.78,2632.36
953.15,2620.46
953.52,2607.89
953.89,2594.59
954.26,2580.52
954.63,2565.69
955.00,2550.13
955.37,2533.90
955.74,2517.04
956.11,2499.63
956.48,2481.74
956.84,2463.42
957.21,2444.74
957.58,2425.75
957.95,2406.54
958.32,2387.16
958.69,2367.71
959.06,2348.29
959.43,2329.02
959.80,2310.01
960.17,2291.41
960.54,2273.34
960.91,2255.94
961.28,2239.29
961.64,2223.48
962.01,2208.52
962.38,2194.38
962.75,2180.98
963.12,2168.18
963.49,2155.82
963.86,2143.73
964.22,2131.73
964.59,2119.67
964.96,2107.45
965.33,2095.00
965.70,2082.31
966.07,2069.43
966.43,2056.40
966.80,2043.34
967.17,2030.33
967.54,2017.46
967.91,2004.83
968.27,1992.48
968.64,1980.45
969.01,1968.76
969.38,1957.39
969.74,1946.33
970.11,1935.52
970.48,1924.91
970.85,1914.43
971.21,1904.02
971.58,1893.60
971.95,1883.11
972.31,1872.49
972.68,1861.71
973.05,1850.74
973.42,1839.56
973.78,1828.18
974.15,1816.64
974.52,1804.97
974.88,1793.26
975.25,1781.57
975.62,1769.99
975.98,1758.63
976.35,1747.54
976.72,1736.79
977.08,1726.41
977.45,1716.39
977.81,1706.68
978.18,1697.22
978.55,1687.88
978.91,1678.56
979.28,1669.14
979.64,1659.50
980.01,1649.54
980.38,1639.23
980.74,1628.53
981.11,1617.46
981.47,1606.08
981.84,1594.45
982.20,1582.66
982.57,1570.82
982.93,1558.98
983.30,1547.22
983.66,1535.57
984.03,1524.02
984.39,1512.58
984.76,1501.20
985.12,1489.87
985.49,1478.58
985.85,1467.33
986.22,1456.18
986.58,1445.19
986.95,1434.46
987.31,1424.09
987.68,1414.19
988.04,1404.82
988.41,1396.02
988.77,1387.76
989.13,1379.97
989.50,1372.53
989.86,1365.27
990.23,1358.04
990.59,1350.65
990.96,1342.98
991.32,1334.95
991.68,1326.51
992.05,1317.69
992.41,1308.54
992.77,1299.16
993.14,1289.62
993.50,1280.01
993.86,1270.37
994.23,1260.70
994.59,1250.97
994.95,1241.14
995.32,1231.14
995.68,1220.94
996.04,1210.52
996.41,1199.92
996.77,1189.23
997.13,1178.58
997.50,1168.14
997.86,1158.08
998.22,1148.59
998.58,1139.79
998.95,1131.77
999.31,1124.54
999.67,1118.07
1000.03,1112.26
1000.40,1106.98
1000.76,1102.08
1001.12,1097.43
1001.48,1092.89
1001.84,1088.37
1002.21,1083.79
1002.57,1079.13
1002.93,1074.37
1003.29,1069.48
1003.65,1064.45
1004.02,1059.25
1004.38,1053.85
1004.74,1048.22
1005.10,1042.30
1005.46,1036.07
1005.82,1029.54
1006.19,1022.72
1006.55,1015.67
1006.91,1008.48
1007.27,1001.22
1007.63,994.01
1007.99,986.92
1008.35,980.03
1008.71,973.38
1009.07,966.99
1009.43,960.85
1009.80,954.94
1010.16,949.22
1010.52,943.64
1010.88,938.16
1011.24,932.72
1011.60,927.29
1011.96,921.84
1012.32,916.35
1012.68,910.83
1013.04,905.27
1013.40,899.71
1013.76,894.17
1014.12,888.71
1014.48,883.38
1014.84,878.21
1015.20,873.26
1015.56,868.54
1015.92,864.08
1016.28,859.86
1016.64,855.87
1017.00,852.07
1017.36,848.41
1017.72,844.84
1018.07,841.30
1018.43,837.75
1018.79,834.13
1019.15,830.39
1019.51,826.50
1019.87,822.43
1020.23,818.15
1020.59,813.64
1020.95,808.91
1021.31,803.97
1021.66,798.85
1022.02,793.60
1022.38,788.28
1022.74,782.96
1023.10,777.72
1023.46,772.64
1023.81,767.77
1024.17,763.20
1024.53,758.96
1024.89,755.09
1025.25,751.62
1025.60,748.59
1025.96,746.01
1026.32,743.84
1026.68,742.00
1027.04,740.47
1027.39,740.34
1027.75,739.47
1028.11,737.81
1028.47,735.36
1028.82,734.69
1029.18,775.34
1029.54,701.65
1029.90,701.65
1030.25,701.65
