wavelength,counts
188.65,248.12
189.10,248.12
189.56,248.12
190.01,248.12
190.47,248.12
190.92,277.62
191.37,290.17
191.83,304.55
192.28,320.54
192.74,337.84
193.19,356.05
193.64,374.71
194.10,394.09
194.55,413.99
195.01,434.24
195.46,454.72
195.91,475.32
196.37,495.97
196.82,516.60
197.27,537.14
197.73,557.52
198.18,577.62
198.63,597.31
199.09,616.41
199.54,634.74
199.99,652.11
200.45,668.33
200.90,683.23
201.35,696.68
201.81,708.58
202.26,718.89
202.71,727.60
203.17,734.72
203.62,740.32
204.07,744.50
204.53,747.36
204.98,749.05
205.43,749.72
205.89,749.57
206.34,748.77
206.79,747.52
207.25,745.99
207.70,744.36
208.15,742.76
208.60,741.28
209.06,739.99
209.51,738.90
209.96,738.00
210.41,737.24
210.87,736.56
211.32,735.91
211.77,735.24
212.23,734.54
212.68,733.81
213.13,733.08
213.58,732.43
214.04,731.90
214.49,731.59
214.94,731.54
215.39,731.78
215.84,732.31
216.30,733.10
216.75,734.08
217.20,735.15
217.65,736.21
218.11,737.14
218.56,737.87
219.01,738.33
219.46,738.50
219.91,738.37
220.37,737.99
220.82,737.41
221.27,736.72
221.72,735.98
222.17,735.26
222.63,734.62
223.08,734.08
223.53,733.66
223.98,733.35
224.43,733.13
224.88,732.96
225.34,732.81
225.79,732.64
226.24,732.41
226.69,732.10
227.14,731.67
227.59,731.13
228.04,730.46
228.50,729.67
228.95,728.77
229.40,727.80
229.85,726.77
230.30,725.73
230.75,724.70
231.20,723.71
231.66,722.80
232.11,721.98
232.56,721.28
233.01,720.70
233.46,720.24
233.91,719.91
234.36,719.70
234.81,719.60
235.26,719.59
235.71,719.63
236.17,719.69
236.62,719.72
237.07,719.68
237.52,719.53
237.97,719.24
238.42,718.79
238.87,718.19
239.32,717.50
239.77,716.78
240.22,716.12
240.67,715.65
241.12,715.48
241.57,715.72
242.02,716.44
242.47,717.70
242.92,719.47
243.37,721.70
243.82,724.26
244.27,727.00
244.72,729.72
245.18,732.21
245.63,734.30
246.08,735.82
246.53,736.65
246.98,736.75
247.43,736.11
247.88,734.80
248.33,732.94
248.78,730.71
249.23,728.31
249.68,725.95
250.12,723.84
250.57,722.18
251.02,721.12
251.47,720.76
251.92,721.13
252.37,722.21
252.82,723.90
253.27,726.07
253.72,728.53
254.17,731.09
254.62,733.54
255.07,735.73
255.52,737.52
255.97,738.82
256.42,739.63
256.87,739.95
257.32,739.86
257.77,739.44
258.22,738.80
258.66,738.04
259.11,737.25
259.56,736.49
260.01,735.83
260.46,735.30
260.91,734.94
261.36,734.76
261.81,734.79
262.26,735.05
262.71,735.54
263.15,736.25
263.60,737.15
264.05,738.19
264.50,739.32
264.95,740.47
265.40,741.55
265.85,742.53
266.30,743.37
266.74,744.08
267.19,744.67
267.64,745.21
268.09,745.71
268.54,746.23
268.99,746.77
269.43,747.29
269.88,747.76
270.33,748.07
270.78,748.15
271.23,747.92
271.68,747.33
272.12,746.37
272.57,745.06
273.02,743.49
273.47,741.76
273.92,739.98
274.36,738.25
274.81,736.67
275.26,735.30
275.71,734.16
276.16,733.23
276.60,732.49
277.05,731.87
277.50,731.31
277.95,730.78
278.39,730.22
278.84,729.62
279.29,728.97
279.74,728.28
280.19,727.57
280.63,726.89
281.08,726.26
281.53,725.74
281.98,725.35
282.42,725.14
282.87,725.15
283.32,725.39
283.76,725.86
284.21,726.57
284.66,727.48
285.11,728.55
285.55,729.71
286.00,730.90
286.45,732.06
286.89,733.14
287.34,734.09
287.79,734.93
288.23,735.66
288.68,736.33
289.13,736.99
289.58,737.71
290.02,738.55
290.47,739.55
290.92,740.71
291.36,742.02
291.81,743.40
292.26,744.77
292.70,745.99
293.15,746.92
293.60,747.46
294.04,747.48
294.49,746.95
294.93,745.87
295.38,744.30
295.83,742.39
296.27,740.33
296.72,738.35
297.17,736.65
297.61,735.47
298.06,734.94
298.50,735.16
298.95,736.12
299.40,737.73
299.84,739.86
300.29,742.29
300.73,744.80
301.18,747.16
301.63,749.17
302.07,750.69
302.52,751.63
302.96,751.97
303.41,751.73
303.85,750.98
304.30,749.82
304.75,748.36
305.19,746.72
305.64,744.99
306.08,743.26
306.53,741.60
306.97,740.06
307.42,738.67
307.86,737.47
308.31,736.48
308.75,735.70
309.20,735.14
309.65,734.81
310.09,734.70
310.54,734.78
310.98,735.04
311.43,735.44
311.87,735.96
312.32,736.56
312.76,737.22
313.21,737.93
313.65,738.69
314.10,739.51
314.54,740.38
314.99,741.30
315.43,742.27
315.87,743.25
316.32,744.22
316.76,745.13
317.21,745.91
317.65,746.52
318.10,746.91
318.54,747.03
318.99,746.85
319.43,746.34
319.88,745.51
320.32,744.35
320.76,742.88
321.21,741.15
321.65,739.22
322.10,737.20
322.54,735.19
322.99,733.36
323.43,731.85
323.87,730.81
324.32,730.37
324.76,730.62
325.21,731.58
325.65,733.22
326.09,735.44
326.54,738.10
326.98,741.03
327.42,744.02
327.87,746.89
328.31,749.47
328.76,751.64
329.20,753.29
329.64,754.39
330.09,754.92
330.53,754.91
330.97,754.41
331.42,753.51
331.86,752.28
332.30,750.82
332.75,749.22
333.19,747.55
333.63,745.90
334.08,744.34
334.52,742.91
334.96,741.68
335.41,740.69
335.85,739.98
336.29,739.58
336.74,739.55
337.18,739.90
337.62,740.68
338.06,741.87
338.51,743.49
338.95,745.51
339.39,747.85
339.84,750.44
340.28,753.16
340.72,755.88
341.16,758.45
341.61,760.72
342.05,762.54
342.49,763.81
342.93,764.42
343.38,764.34
343.82,763.55
344.26,762.10
344.70,760.08
345.15,757.60
345.59,754.81
346.03,751.87
346.47,748.95
346.92,746.21
347.36,743.77
347.80,741.75
348.24,740.20
348.68,739.18
349.13,738.67
349.57,738.66
350.01,739.10
350.45,739.92
350.89,741.04
351.34,742.40
351.78,743.91
352.22,745.50
352.66,747.10
353.10,748.65
353.54,750.10
353.99,751.42
354.43,752.58
354.87,753.58
355.31,754.43
355.75,755.15
356.19,755.78
356.63,756.36
357.08,756.93
357.52,757.54
357.96,758.21
358.40,758.95
358.84,759.76
359.28,760.61
359.72,761.45
360.16,762.23
360.60,762.91
361.05,763.43
361.49,763.79
361.93,763.99
362.37,764.06
362.81,764.07
363.25,764.07
363.69,764.15
364.13,764.33
364.57,764.66
365.01,765.12
365.45,765.68
365.89,766.28
366.33,766.85
366.78,767.35
367.22,767.73
367.66,768.01
368.10,768.21
368.54,768.41
368.98,768.66
369.42,769.05
369.86,769.62
370.30,770.40
370.74,771.38
371.18,772.51
371.62,773.72
372.06,774.93
372.50,776.03
372.94,776.98
373.38,777.71
373.82,778.19
374.26,778.42
374.70,778.41
375.14,778.18
375.58,777.76
376.02,777.17
376.46,776.46
376.90,775.68
377.34,774.90
377.78,774.20
378.21,773.69
378.65,773.50
379.09,773.77
379.53,774.62
379.97,776.16
380.41,778.45
380.85,781.50
381.29,785.28
381.73,789.69
382.17,794.58
382.61,799.77
383.05,805.07
383.49,810.28
383.93,815.22
384.36,819.74
384.80,823.75
385.24,827.18
385.68,830.00
386.12,832.24
386.56,833.95
387.00,835.20
387.44,836.09
387.87,836.73
388.31,837.23
388.75,837.71
389.19,838.27
389.63,839.03
390.07,840.07
390.51,841.44
390.94,843.20
391.38,845.34
391.82,847.85
392.26,850.66
392.70,853.71
393.14,856.92
393.57,860.22
394.01,863.54
394.45,866.85
394.89,870.15
395.33,873.47
395.76,876.86
396.20,880.40
396.64,884.16
397.08,888.24
397.52,892.67
397.95,897.48
398.39,902.65
398.83,908.12
399.27,913.78
399.70,919.49
400.14,925.09
400.58,930.44
401.02,935.38
401.45,939.83
401.89,943.72
402.33,947.05
402.77,949.88
403.20,952.30
403.64,954.43
404.08,956.42
404.52,958.41
404.95,960.53
405.39,962.90
405.83,965.60
406.26,968.70
406.70,972.22
407.14,976.19
407.58,980.57
408.01,985.36
408.45,990.52
408.89,995.98
409.32,1001.70
409.76,1007.61
410.20,1013.65
410.63,1019.76
411.07,1025.84
411.51,1031.84
411.94,1037.68
412.38,1043.32
412.82,1048.73
413.25,1053.94
413.69,1059.00
414.12,1064.03
414.56,1069.16
415.00,1074.56
415.43,1080.37
415.87,1086.71
416.31,1093.67
416.74,1101.25
417.18,1109.42
417.61,1118.08
418.05,1127.08
418.49,1136.30
418.92,1145.60
419.36,1154.87
419.79,1164.05
420.23,1173.12
420.67,1182.09
421.10,1191.00
421.54,1199.92
421.97,1208.93
422.41,1218.11
422.84,1227.53
423.28,1237.26
423.71,1247.36
424.15,1257.85
424.59,1268.72
425.02,1279.92
425.46,1291.36
425.89,1302.94
426.33,1314.50
426.76,1325.90
427.20,1337.02
427.63,1347.75
428.07,1358.04
428.50,1367.89
428.94,1377.35
429.37,1386.51
429.81,1395.47
430.24,1404.35
430.68,1413.26
431.11,1422.26
431.55,1431.42
431.98,1440.76
432.42,1450.29
432.85,1459.98
433.28,1469.84
433.72,1479.85
434.15,1490.01
434.59,1500.33
435.02,1510.81
435.46,1521.46
435.89,1532.28
436.33,1543.27
436.76,1554.40
437.19,1565.65
437.63,1576.99
438.06,1588.36
438.50,1599.71
438.93,1610.98
439.37,1622.10
439.80,1633.00
440.23,1643.60
440.67,1653.84
441.10,1663.68
441.53,1673.12
441.97,1682.19
442.40,1690.97
442.84,1699.56
443.27,1708.09
443.70,1716.69
444.14,1725.45
444.57,1734.40
445.00,1743.51
445.44,1752.69
445.87,1761.79
446.30,1770.64
446.74,1779.09
447.17,1787.03
447.60,1794.47
448.04,1801.49
448.47,1808.28
448.90,1815.14
449.34,1822.35
449.77,1830.23
450.20,1839.01
450.64,1848.83
451.07,1859.72
451.50,1871.60
451.93,1884.32
452.37,1897.66
452.80,1911.44
453.23,1925.49
453.67,1939.72
454.10,1954.10
454.53,1968.67
454.96,1983.49
455.40,1998.63
455.83,2014.09
456.26,2029.87
456.69,2045.88
457.13,2061.99
457.56,2078.09
457.99,2094.06
458.42,2109.87
458.86,2125.54
459.29,2141.16
459.72,2156.90
460.15,2172.92
460.58,2189.37
461.02,2206.35
461.45,2223.87
461.88,2241.84
462.31,2260.12
462.74,2278.53
463.18,2296.88
463.61,2315.08
464.04,2333.07
464.47,2350.93
464.90,2368.83
465.33,2386.99
465.77,2405.63
466.20,2424.95
466.63,2445.07
467.06,2465.99
467.49,2487.61
467.92,2509.75
468.35,2532.22
468.78,2554.84
469.22,2577.55
469.65,2600.41
470.08,2623.66
470.51,2647.63
470.94,2672.77
471.37,2699.52
471.80,2728.24
472.23,2759.11
472.66,2792.14
473.10,2827.06
473.53,2863.43
473.96,2900.68
474.39,2938.19
474.82,2975.42
475.25,3012.02
475.68,3047.86
476.11,3083.08
476.54,3118.08
476.97,3153.38
477.40,3189.60
477.83,3227.24
478.26,3266.66
478.69,3307.91
479.12,3350.74
479.55,3394.61
479.98,3438.78
480.41,3482.39
480.84,3524.63
481.27,3564.91
481.70,3602.93
482.13,3638.79
482.56,3672.99
482.99,3706.38
483.42,3740.02
483.85,3775.05
484.28,3812.48
484.71,3853.07
485.14,3897.14
485.57,3944.57
486.00,3994.73
486.43,4046.62
486.86,4099.00
487.29,4150.55
487.72,4200.07
488.15,4246.70
488.58,4289.99
489.01,4329.99
489.44,4367.20
489.87,4402.52
490.30,4437.01
490.72,4471.76
491.15,4507.63
491.58,4545.13
492.01,4584.26
492.44,4624.55
492.87,4665.05
493.30,4704.55
493.73,4741.75
494.16,4775.51
494.59,4805.04
495.01,4830.10
495.44,4851.06
495.87,4868.88
496.30,4885.01
496.73,4901.18
497.16,4919.13
497.59,4940.37
498.01,4965.89
498.44,4996.03
498.87,5030.40
499.30,5067.89
499.73,5106.85
500.16,5145.29
500.58,5181.22
501.01,5212.92
501.44,5239.23
501.87,5259.72
502.30,5274.77
502.72,5285.54
503.15,5293.82
503.58,5301.71
504.01,5311.40
504.44,5324.74
504.86,5343.02
505.29,5366.78
505.72,5395.67
506.15,5428.54
506.57,5463.59
507.00,5498.65
507.43,5531.48
507.86,5560.11
508.28,5583.13
508.71,5599.90
509.14,5610.64
509.57,5616.40
509.99,5618.95
510.42,5620.50
510.85,5623.39
511.27,5629.82
511.70,5641.46
512.13,5659.29
512.56,5683.42
512.98,5713.04
513.41,5746.58
513.84,5781.85
514.26,5816.35
514.69,5847.61
515.12,5873.55
515.54,5892.72
515.97,5904.56
516.40,5909.48
516.82,5908.85
517.25,5904.79
517.68,5899.97
518.10,5897.17
518.53,5899.00
518.95,5907.45
519.38,5923.67
519.81,5947.77
520.23,5978.75
520.66,6014.67
521.09,6052.86
521.51,6090.24
521.94,6123.76
522.36,6150.79
522.79,6169.46
523.22,6178.92
523.64,6179.45
524.07,6172.46
524.49,6160.27
524.92,6145.85
525.34,6132.40
525.77,6122.98
526.20,6120.09
526.62,6125.35
527.05,6139.32
527.47,6161.41
527.90,6189.97
528.32,6222.50
528.75,6255.97
529.17,6287.21
529.60,6313.28
530.02,6331.88
530.45,6341.61
530.87,6342.12
531.30,6334.23
531.72,6319.76
532.15,6301.35
532.57,6282.12
533.00,6265.30
533.42,6253.86
533.85,6250.09
534.27,6255.37
534.70,6270.01
535.12,6293.15
535.55,6322.93
535.97,6356.67
536.40,6391.20
536.82,6423.21
537.25,6449.67
537.67,6468.14
538.09,6477.11
538.52,6476.11
538.94,6465.80
539.37,6447.92
539.79,6425.05
540.22,6400.34
540.64,6377.18
541.06,6358.79
541.49,6347.86
541.91,6346.27
542.34,6354.84
542.76,6373.30
543.18,6400.22
543.61,6433.29
544.03,6469.48
544.46,6505.41
544.88,6537.72
545.30,6563.46
545.73,6580.38
546.15,6587.16
546.57,6583.61
547.00,6570.63
547.42,6550.14
547.84,6524.84
548.27,6497.97
548.69,6472.90
549.11,6452.82
549.54,6440.38
549.96,6437.40
550.38,6444.73
550.81,6462.13
551.23,6488.32
551.65,6521.12
552.07,6557.69
552.50,6594.80
552.92,6629.20
553.34,6657.89
553.77,6678.45
554.19,6689.24
554.61,6689.54
555.03,6679.61
555.46,6660.66
555.88,6634.74
556.30,6604.51
556.72,6573.02
557.15,6543.40
557.57,6518.62
557.99,6501.21
558.41,6492.99
558.84,6494.97
559.26,6507.22
559.68,6528.90
560.10,6558.32
560.52,6593.13
560.95,6630.53
561.37,6667.53
561.79,6701.27
562.21,6729.23
562.63,6749.49
563.06,6760.89
563.48,6763.15
563.90,6756.86
564.32,6743.43
564.74,6725.00
565.16,6704.20
565.58,6683.98
566.01,6667.29
566.43,6656.84
566.85,6654.86
567.27,6662.88
567.69,6681.55
568.11,6710.59
568.53,6748.79
568.96,6794.09
569.38,6843.76
569.80,6894.66
570.22,6943.48
570.64,6987.09
571.06,7022.73
571.48,7048.31
571.90,7062.51
572.32,7064.92
572.74,7055.95
573.16,7036.85
573.58,7009.51
574.01,6976.32
574.43,6939.97
574.85,6903.20
575.27,6868.64
575.69,6838.60
576.11,6814.96
576.53,6799.00
576.95,6791.41
577.37,6792.24
577.79,6800.94
578.21,6816.45
578.63,6837.31
579.05,6861.76
579.47,6887.91
579.89,6913.83
580.31,6937.70
580.73,6957.94
581.15,6973.25
581.57,6982.72
581.99,6985.89
582.41,6982.76
582.83,6973.85
583.25,6960.13
583.67,6942.97
584.09,6924.09
584.51,6905.42
584.93,6888.95
585.34,6876.58
585.76,6869.99
586.18,6870.50
586.60,6878.98
587.02,6895.75
587.44,6920.62
587.86,6952.88
588.28,6991.38
588.70,7034.63
589.12,7080.90
589.54,7128.36
589.95,7175.20
590.37,7219.79
590.79,7260.73
591.21,7296.98
591.63,7327.93
592.05,7353.41
592.47,7373.75
592.89,7389.75
593.30,7402.63
593.72,7413.95
594.14,7425.57
594.56,7439.44
594.98,7457.55
595.40,7481.73
595.81,7513.50
596.23,7553.96
596.65,7603.69
597.07,7662.63
597.49,7730.09
597.90,7804.77
598.32,7884.80
598.74,7967.89
599.16,8051.44
599.58,8132.77
599.99,8209.25
600.41,8278.49
600.83,8338.53
601.25,8387.91
601.66,8425.76
602.08,8451.87
602.50,8466.62
602.92,8470.99
603.33,8466.43
603.75,8454.78
604.17,8438.16
604.59,8418.83
605.00,8399.06
605.42,8381.02
605.84,8366.66
606.25,8357.60
606.67,8355.06
607.09,8359.78
607.51,8372.01
607.92,8391.44
608.34,8417.29
608.76,8448.34
609.17,8482.97
609.59,8519.36
610.01,8555.55
610.42,8589.62
610.84,8619.81
611.26,8644.64
611.67,8663.04
612.09,8674.36
612.51,8678.46
612.92,8675.66
613.34,8666.74
613.75,8652.84
614.17,8635.41
614.59,8616.12
615.00,8596.76
615.42,8579.12
615.83,8564.96
616.25,8555.83
616.67,8553.08
617.08,8557.72
617.50,8570.38
617.91,8591.26
618.33,8620.14
618.75,8656.34
619.16,8698.77
619.58,8745.98
619.99,8796.27
620.41,8847.77
620.82,8898.54
621.24,8946.74
621.65,8990.73
622.07,9029.13
622.48,9060.98
622.90,9085.76
623.31,9103.39
623.73,9114.28
624.14,9119.27
624.56,9119.54
624.97,9116.55
625.39,9111.92
625.80,9107.33
626.22,9104.38
626.63,9104.56
627.05,9109.10
627.46,9118.97
627.88,9134.81
628.29,9156.94
628.71,9185.39
629.12,9219.88
629.54,9259.86
629.95,9304.56
630.37,9353.00
630.78,9404.05
631.19,9456.42
631.61,9508.73
632.02,9559.57
632.44,9607.56
632.85,9651.40
633.26,9690.04
633.68,9722.69
634.09,9748.91
634.51,9768.71
634.92,9782.51
635.33,9791.14
635.75,9795.80
636.16,9797.92
636.57,9799.09
636.99,9800.91
637.40,9804.88
637.82,9812.34
638.23,9824.35
638.64,9841.64
639.06,9864.66
639.47,9893.53
639.88,9928.04
640.30,9967.74
640.71,10011.96
641.12,10059.82
641.53,10110.34
641.95,10162.42
642.36,10214.95
642.77,10266.80
643.19,10316.91
643.60,10364.28
644.01,10408.03
644.42,10447.42
644.84,10481.89
645.25,10511.07
645.66,10534.84
646.08,10553.34
646.49,10566.96
646.90,10576.42
647.31,10582.66
647.73,10586.85
648.14,10590.31
648.55,10594.41
648.96,10600.51
649.37,10609.81
649.79,10623.32
650.20,10641.75
650.61,10665.49
651.02,10694.59
651.43,10728.81
651.85,10767.60
652.26,10810.20
652.67,10855.72
653.08,10903.16
653.49,10951.49
653.90,10999.73
654.32,11046.92
654.73,11092.23
655.14,11134.91
655.55,11174.35
655.96,11210.07
656.37,11241.72
656.78,11269.12
657.20,11292.22
657.61,11311.18
658.02,11326.30
658.43,11338.07
658.84,11347.12
659.25,11354.27
659.66,11360.45
660.07,11366.71
660.48,11374.12
660.90,11383.78
661.31,11396.70
661.72,11413.72
662.13,11435.49
662.54,11462.37
662.95,11494.41
663.36,11531.33
663.77,11572.54
664.18,11617.19
664.59,11664.24
665.00,11712.51
665.41,11760.84
665.82,11808.08
666.23,11853.24
666.64,11895.49
667.05,11934.19
667.46,11968.92
667.87,11999.43
668.28,12025.66
668.69,12047.69
669.10,12065.70
669.51,12079.96
669.92,12090.85
670.33,12098.76
670.74,12104.20
671.15,12107.70
671.56,12109.88
671.97,12111.40
672.38,12112.99
672.79,12115.40
673.20,12119.36
673.61,12125.58
674.02,12134.68
674.42,12147.15
674.83,12163.31
675.24,12183.32
675.65,12207.09
676.06,12234.36
676.47,12264.70
676.88,12297.52
677.29,12332.13
677.70,12367.79
678.11,12403.75
678.51,12439.26
678.92,12473.67
679.33,12506.39
679.74,12536.92
680.15,12564.87
680.56,12589.94
680.97,12611.92
681.37,12630.70
681.78,12646.23
682.19,12658.56
682.60,12667.82
683.01,12674.24
683.42,12678.15
683.82,12679.98
684.23,12680.22
684.64,12679.46
685.05,12678.32
685.45,12677.45
685.86,12677.47
686.27,12678.96
686.68,12682.44
687.09,12688.36
687.49,12697.05
687.90,12708.76
688.31,12723.63
688.72,12741.68
689.12,12762.82
689.53,12786.86
689.94,12813.46
690.35,12842.21
690.75,12872.61
691.16,12904.06
691.57,12935.95
691.97,12967.64
692.38,12998.53
692.79,13028.04
693.20,13055.65
693.60,13080.94
694.01,13103.58
694.42,13123.34
694.82,13140.09
695.23,13153.82
695.64,13164.62
696.04,13172.68
696.45,13178.27
696.86,13181.73
697.26,13183.44
697.67,13183.82
698.07,13183.29
698.48,13182.28
698.89,13181.19
699.29,13180.42
699.70,13180.34
700.11,13181.30
700.51,13183.65
700.92,13187.70
701.32,13193.72
701.73,13201.95
702.14,13212.57
702.54,13225.71
702.95,13241.42
703.35,13259.66
703.76,13280.35
704.16,13303.29
704.57,13328.25
704.97,13354.89
705.38,13382.81
705.79,13411.52
706.19,13440.44
706.60,13468.91
707.00,13496.19
707.41,13521.50
707.81,13544.07
708.22,13563.16
708.62,13578.14
709.03,13588.57
709.43,13594.22
709.84,13595.12
710.24,13591.56
710.65,13584.09
711.05,13573.48
711.46,13560.65
711.86,13546.62
712.27,13532.44
712.67,13519.13
713.07,13507.59
713.48,13498.61
713.88,13492.79
714.29,13490.55
714.69,13492.13
715.10,13497.60
715.50,13506.87
715.90,13519.69
716.31,13535.72
716.71,13554.53
717.12,13575.62
717.52,13598.45
717.92,13622.45
718.33,13647.05
718.73,13671.67
719.14,13695.79
719.54,13718.89
719.94,13740.54
720.35,13760.34
720.75,13778.01
721.15,13793.30
721.56,13806.08
721.96,13816.22
722.36,13823.69
722.77,13828.44
723.17,13830.47
723.57,13829.76
723.98,13826.31
724.38,13820.13
724.78,13811.28
725.19,13799.85
725.59,13786.01
725.99,13770.01
726.39,13752.15
726.80,13732.85
727.20,13712.57
727.60,13691.83
728.00,13671.18
728.41,13651.19
728.81,13632.41
729.21,13615.40
729.61,13600.66
730.02,13588.65
730.42,13579.77
730.82,13574.30
731.22,13572.43
731.63,13574.23
732.03,13579.58
732.43,13588.23
732.83,13599.75
733.23,13613.57
733.64,13628.98
734.04,13645.18
734.44,13661.33
734.84,13676.57
735.24,13690.10
735.64,13701.20
736.05,13709.27
736.45,13713.85
736.85,13714.63
737.25,13711.45
737.65,13704.29
738.05,13693.22
738.45,13678.42
738.86,13660.10
739.26,13638.49
739.66,13613.87
740.06,13586.51
740.46,13556.69
740.86,13524.75
741.26,13491.06
741.66,13456.07
742.06,13420.32
742.46,13384.42
742.87,13349.05
743.27,13314.93
743.67,13282.83
744.07,13253.49
744.47,13227.62
744.87,13205.86
745.27,13188.75
745.67,13176.71
746.07,13170.05
746.47,13168.89
746.87,13173.23
747.27,13182.86
747.67,13197.44
748.07,13216.47
748.47,13239.30
748.87,13265.20
749.27,13293.35
749.67,13322.91
750.07,13353.04
750.47,13382.94
750.87,13411.84
751.27,13439.07
751.67,13464.01
752.07,13486.12
752.47,13504.93
752.87,13520.03
753.27,13531.06
753.66,13537.71
754.06,13539.73
754.46,13536.91
754.86,13529.12
755.26,13516.24
755.66,13498.26
756.06,13475.17
756.46,13447.07
756.86,13414.09
757.26,13376.46
757.65,13334.49
758.05,13288.59
758.45,13239.28
758.85,13187.20
759.25,13133.11
759.65,13077.85
760.05,13022.35
760.44,12967.55
760.84,12914.36
761.24,12863.61
761.64,12815.98
762.04,12771.97
762.44,12731.85
762.83,12695.70
763.23,12663.35
763.63,12634.46
764.03,12608.56
764.43,12585.06
764.82,12563.37
765.22,12542.86
765.62,12522.95
766.02,12503.08
766.41,12482.70
766.81,12461.31
767.21,12438.37
767.61,12413.33
768.00,12385.64
768.40,12354.71
768.80,12320.00
769.20,12281.04
769.59,12237.48
769.99,12189.14
770.39,12136.05
770.79,12078.46
771.18,12016.86
771.58,11951.92
771.98,11884.45
772.37,11815.33
772.77,11745.48
773.17,11675.78
773.56,11607.02
773.96,11539.92
774.36,11475.11
774.75,11413.13
775.15,11354.45
775.55,11299.49
775.94,11248.60
776.34,11202.09
776.73,11160.17
777.13,11122.97
777.53,11090.49
777.92,11062.58
778.32,11038.95
778.72,11019.21
779.11,11002.80
779.51,10989.10
779.90,10977.45
780.30,10967.17
780.69,10957.59
781.09,10948.13
781.49,10938.31
781.88,10927.71
782.28,10916.06
782.67,10903.13
783.07,10888.78
783.46,10872.87
783.86,10855.25
784.25,10835.76
784.65,10814.17
785.04,10790.20
785.44,10763.57
785.83,10733.96
786.23,10701.13
786.62,10664.89
787.02,10625.20
787.41,10582.14
787.81,10535.92
788.20,10486.89
788.60,10435.48
788.99,10382.21
789.39,10327.57
789.78,10272.04
790.18,10216.06
790.57,10159.97
790.97,10104.07
791.36,10048.60
791.75,9993.78
792.15,9939.88
792.54,9887.22
792.94,9836.17
793.33,9787.25
793.72,9741.00
794.12,9698.06
794.51,9659.04
794.91,9624.49
795.30,9594.88
795.69,9570.46
796.09,9551.28
796.48,9537.17
796.87,9527.68
797.27,9522.18
797.66,9519.88
798.05,9519.86
798.45,9521.21
798.84,9523.02
799.23,9524.50
799.63,9524.94
800.02,9523.81
800.41,9520.70
800.81,9515.31
801.20,9507.46
801.59,9496.99
801.99,9483.81
802.38,9467.84
802.77,9449.02
803.16,9427.27
803.56,9402.55
803.95,9374.84
804.34,9344.15
804.73,9310.51
805.13,9274.01
805.52,9234.77
805.91,9192.95
806.30,9148.71
806.69,9102.29
807.09,9053.90
807.48,9003.84
807.87,8952.42
808.26,8900.00
808.66,8847.01
809.05,8793.92
809.44,8741.24
809.83,8689.52
810.22,8639.28
810.61,8591.05
811.01,8545.31
811.40,8502.45
811.79,8462.83
812.18,8426.72
812.57,8394.33
812.96,8365.80
813.35,8341.26
813.75,8320.75
814.14,8304.28
814.53,8291.79
814.92,8283.14
815.31,8278.11
815.70,8276.37
816.09,8277.46
816.48,8280.85
816.87,8285.92
817.26,8291.99
817.65,8298.37
818.04,8304.39
818.44,8309.41
818.83,8312.86
819.22,8314.25
819.61,8313.14
820.00,8309.17
820.39,8302.01
820.78,8291.39
821.17,8277.08
821.56,8258.87
821.95,8236.65
822.34,8210.36
822.73,8180.03
823.12,8145.83
823.51,8108.03
823.90,8067.05
824.29,8023.41
824.68,7977.70
825.07,7930.57
825.46,7882.70
825.85,7834.70
826.24,7787.16
826.62,7740.55
827.01,7695.26
827.40,7651.58
827.79,7609.72
828.18,7569.80
828.57,7531.95
828.96,7496.26
829.35,7462.84
829.74,7431.82
830.13,7403.35
830.52,7377.62
830.90,7354.82
831.29,7335.12
831.68,7318.70
832.07,7305.68
832.46,7296.13
832.85,7290.07
833.24,7287.45
833.62,7288.16
834.01,7292.04
834.40,7298.85
834.79,7308.32
835.18,7320.11
835.57,7333.84
835.95,7349.10
836.34,7365.42
836.73,7382.26
837.12,7399.08
837.51,7415.26
837.89,7430.21
838.28,7443.31
838.67,7454.02
839.06,7461.84
839.44,7466.41
839.83,7467.46
840.22,7464.88
840.61,7458.69
840.99,7449.02
841.38,7436.09
841.77,7420.19
842.16,7401.60
842.54,7380.62
842.93,7357.49
843.32,7332.45
843.70,7305.67
844.09,7277.30
844.48,7247.51
844.86,7216.47
845.25,7184.36
845.64,7151.45
846.02,7118.03
846.41,7084.44
846.80,7051.07
847.18,7018.32
847.57,6986.57
847.96,6956.23
848.34,6927.66
848.73,6901.19
849.12,6877.15
849.50,6855.80
849.89,6837.41
850.27,6822.20
850.66,6810.35
851.05,6801.96
851.43,6797.08
851.82,6795.63
852.20,6797.42
852.59,6802.16
852.97,6809.43
853.36,6818.76
853.75,6829.60
854.13,6841.44
854.52,6853.80
854.90,6866.30
855.29,6878.67
855.67,6890.80
856.06,6902.65
856.44,6914.32
856.83,6925.90
857.21,6937.49
857.60,6949.12
857.98,6960.74
858.37,6972.15
858.75,6983.06
859.14,6993.09
859.52,7001.80
859.91,7008.74
860.29,7013.53
860.68,7015.86
861.06,7015.52
861.44,7012.45
861.83,7006.68
862.21,6998.34
862.60,6987.65
862.98,6974.82
863.37,6960.11
863.75,6943.73
864.13,6925.86
864.52,6906.65
864.90,6886.19
865.29,6864.58
865.67,6841.91
866.05,6818.30
866.44,6793.90
866.82,6768.95
867.20,6743.73
867.59,6718.61
867.97,6694.00
868.35,6670.34
868.74,6648.09
869.12,6627.65
869.50,6609.38
869.89,6593.55
870.27,6580.33
870.65,6569.75
871.04,6561.77
871.42,6556.25
871.80,6552.97
872.19,6551.69
872.57,6552.16
872.95,6554.14
873.33,6557.47
873.72,6562.02
874.10,6567.77
874.48,6574.72
874.86,6582.96
875.25,6592.57
875.63,6603.63
876.01,6616.18
876.39,6630.18
876.77,6645.53
877.16,6662.03
877.54,6679.43
877.92,6697.45
878.30,6715.82
878.68,6734.33
879.07,6752.85
879.45,6771.36
879.83,6789.97
880.21,6808.89
880.59,6828.39
880.97,6848.80
881.36,6870.40
881.74,6893.43
882.12,6918.01
882.50,6944.14
882.88,6971.66
883.26,7000.32
883.64,7029.75
884.02,7059.54
884.41,7089.31
884.79,7118.71
885.17,7147.50
885.55,7175.56
885.93,7202.91
886.31,7229.69
886.69,7256.13
887.07,7282.50
887.45,7309.05
887.83,7335.98
888.21,7363.41
888.59,7391.34
888.97,7419.63
889.35,7448.08
889.73,7476.37
890.11,7504.15
890.49,7531.05
890.87,7556.67
891.25,7580.64
891.63,7602.60
892.01,7622.17
892.39,7639.00
892.77,7652.71
893.15,7662.92
893.53,7669.27
893.91,7671.45
894.29,7669.21
894.67,7662.38
895.05,7650.91
895.43,7634.87
895.81,7614.42
896.19,7589.83
896.57,7561.39
896.95,7529.43
897.32,7494.27
897.70,7456.18
898.08,7415.36
898.46,7371.95
898.84,7326.03
899.22,7277.65
899.60,7226.82
899.98,7173.56
900.35,7117.93
900.73,7060.05
901.11,7000.09
901.49,6938.30
901.87,6874.96
902.25,6810.42
902.63,6745.02
903.00,6679.10
903.38,6612.97
903.76,6546.90
904.14,6481.11
904.52,6415.79
904.89,6351.06
905.27,6287.07
905.65,6223.92
906.03,6161.73
906.40,6100.59
906.78,6040.60
907.16,5981.85
907.54,5924.43
907.91,5868.40
908.29,5813.81
908.67,5760.71
909.05,5709.15
909.42,5659.18
909.80,5610.85
910.18,5564.22
910.55,5519.30
910.93,5476.14
911.31,5434.70
911.68,5394.94
912.06,5356.77
912.44,5320.06
912.82,5284.66
913.19,5250.43
913.57,5217.22
913.94,5184.92
914.32,5153.45
914.70,5122.77
915.07,5092.86
915.45,5063.72
915.83,5035.37
916.20,5007.82
916.58,4981.07
916.95,4955.11
917.33,4929.92
917.71,4905.47
918.08,4881.74
918.46,4858.72
918.83,4836.43
919.21,4814.86
919.58,4794.03
919.96,4773.94
920.34,4754.57
920.71,4735.88
921.09,4717.82
921.46,4700.29
921.84,4683.19
922.21,4666.44
922.59,4649.91
922.96,4633.52
923.34,4617.15
923.71,4600.72
924.09,4584.13
924.46,4567.27
924.84,4550.05
925.21,4532.37
925.59,4514.14
925.96,4495.30
926.34,4475.81
926.71,4455.67
927.08,4434.89
927.46,4413.51
927.83,4391.57
928.21,4369.11
928.58,4346.17
928.96,4322.77
929.33,4298.91
929.70,4274.60
930.08,4249.87
930.45,4224.76
930.83,4199.34
931.20,4173.72
931.57,4148.05
931.95,4122.48
932.32,4097.16
932.69,4072.25
933.07,4047.85
933.44,4024.02
933.81,4000.78
934.19,3978.10
934.56,3955.90
934.93,3934.12
935.31,3912.67
935.68,3891.48
936.05,3870.52
936.43,3849.78
936.80,3829.25
937.17,3808.96
937.54,3788.89
937.92,3769.03
938.29,3749.30
938.66,3729.63
939.03,3709.91
939.41,3690.03
939.78,3669.88
940.15,3649.40
940.52,3628.59
940.90,3607.46
941.27,3586.11
941.64,3564.64
942.01,3543.21
942.38,3521.94
942.76,3501.00
943.13,3480.51
943.50,3460.58
943.87,3441.32
944.24,3422.81
944.61,3405.10
944.99,3388.24
945.36,3372.21
945.73,3356.96
946.10,3342.39
946.47,3328.36
946.84,3314.65
947.21,3301.04
947.59,3287.29
947.96,3273.18
948.33,3258.53
948.70,3243.23
949.07,3227.25
949.44,3210.61
949.81,3193.45
950.18,3175.91
950.55,3158.20
950.92,3140.51
951.29,3123.01
951.66,3105.83
952.03,3089.05
952.41,3072.67
952.78,3056.67
953.15,3040.97
953.52,3025.44
953.89,3009.97
954.26,2994.42
954.63,2978.68
955.00,2962.64
955.37,2946.20
955.74,2929.29
956.11,2911.85
956.48,2893.84
956.84,2875.21
957.21,2855.98
957.58,2836.15
957.95,2815.78
958.32,2794.94
958.69,2773.76
959.06,2752.37
959.43,2730.93
959.80,2709.60
960.17,2688.51
960.54,2667.80
960.91,2647.55
961.28,2627.83
961.64,2608.65
962.01,2590.04
962.38,2572.00
962.75,2554.52
963.12,2537.59
963.49,2521.22
963.86,2505.37
964.22,2490.02
964.59,2475.11
964.96,2460.55
965.33,2446.25
965.70,2432.10
966.07,2418.00
966.43,2403.87
966.80,2389.67
967.17,2375.37
967.54,2361.03
967.91,2346.68
968.27,2332.41
968.64,2318.28
969.01,2304.34
969.38,2290.63
969.74,2277.12
970.11,2263.79
970.48,2250.57
970.85,2237.43
971.21,2224.31
971.58,2211.19
971.95,2198.09
972.31,2185.03
972.68,2172.05
973.05,2159.21
973.42,2146.52
973.78,2133.99
974.15,2121.60
974.52,2109.28
974.88,2096.97
975.25,2084.59
975.62,2072.06
975.98,2059.34
976.35,2046.42
976.72,2033.32
977.08,2020.09
977.45,2006.80
977.81,1993.52
978.18,1980.30
978.55,1967.19
978.91,1954.20
979.28,1941.30
979.64,1928.46
980.01,1915.63
980.38,1902.77
980.74,1889.83
981.11,1876.80
981.47,1863.65
981.84,1850.40
982.20,1837.05
982.57,1823.62
982.93,1810.13
983.30,1796.59
983.66,1783.02
984.03,1769.46
984.39,1755.95
984.76,1742.54
985.12,1729.32
985.49,1716.36
985.85,1703.74
986.22,1691.54
986.58,1679.82
986.95,1668.59
987.31,1657.87
987.68,1647.61
988.04,1637.77
988.41,1628.24
988.77,1618.95
989.13,1609.78
989.50,1600.63
989.86,1591.43
990.23,1582.08
990.59,1572.54
990.96,1562.77
991.32,1552.78
991.68,1542.59
992.05,1532.24
992.41,1521.80
992.77,1511.33
993.14,1500.91
993.50,1490.59
993.86,1480.43
994.23,1470.46
994.59,1460.68
994.95,1451.10
995.32,1441.71
995.68,1432.49
996.04,1423.45
996.41,1414.60
996.77,1405.96
997.13,1397.55
997.50,1389.41
997.86,1381.55
998.22,1373.96
998.58,1366.62
998.95,1359.49
999.31,1352.51
999.67,1345.61
1000.03,1338.72
1000.40,1331.79
1000.76,1324.81
1001.12,1317.78
1001.48,1310.74
1001.84,1303.74
1002.21,1296.87
1002.57,1290.18
1002.93,1283.74
1003.29,1277.55
1003.65,1271.63
1004.02,1265.94
1004.38,1260.41
1004.74,1254.99
1005.10,1249.58
1005.46,1244.11
1005.82,1238.51
1006.19,1232.75
1006.55,1226.79
1006.91,1220.62
1007.27,1214.26
1007.63,1207.74
1007.99,1201.09
1008.35,1194.36
1008.71,1187.57
1009.07,1180.77
1009.43,1173.96
1009.80,1167.14
1010.16,1160.29
1010.52,1153.40
1010.88,1146.46
1011.24,1139.47
1011.60,1132.45
1011.96,1125.46
1012.32,1118.57
1012.68,1111.86
1013.04,1105.42
1013.40,1099.29
1013.76,1093.54
1014.12,1088.14
1014.48,1083.08
1014.84,1078.31
1015.20,1073.75
1015.56,1069.34
1015.92,1065.03
1016.28,1060.78
1016.64,1056.59
1017.00,1052.47
1017.36,1048.43
1017.72,1044.50
1018.07,1040.69
1018.43,1036.99
1018.79,1033.38
1019.15,1029.82
1019.51,1026.25
1019.87,1022.61
1020.23,1018.86
1020.59,1014.94
1020.95,1010.84
1021.31,1006.57
1021.66,1002.15
1022.02,997.60
1022.38,992.98
1022.74,988.32
1023.10,983.64
1023.46,978.95
1023.81,974.24
1024.17,969.49
1024.53,964.66
1024.89,959.72
1025.25,954.64
1025.60,949.43
1025.96,944.13
1026.32,938.83
1026.68,933.64
1027.04,927.83
1027.39,922.95
1027.75,918.71
1028.11,915.22
1028.47,912.51
1028.82,879.43
1029.18,927.63
1029.54,912.41
1029.90,912.41
1030.25,912.41
