wavelength,counts
188.65,35.86
189.10,35.86
189.56,35.86
190.01,35.86
190.47,35.86
190.92,65.89
191.37,78.60
191.83,93.15
192.28,109.33
192.74,126.87
193.19,145.43
193.64,164.58
194.10,184.66
194.55,205.51
195.01,226.98
195.46,248.92
195.91,271.22
196.37,293.74
196.82,316.35
197.27,338.91
197.73,361.27
198.18,383.25
198.63,404.65
199.09,425.25
199.54,444.82
199.99,463.14
200.45,480.00
200.90,495.22
201.35,508.67
201.81,520.30
202.26,530.10
202.71,538.15
203.17,544.56
203.62,549.52
204.07,553.22
204.53,555.88
204.98,557.71
205.43,558.90
205.89,559.62
206.34,560.01
206.79,560.16
207.25,560.13
207.70,559.96
208.15,559.65
208.60,559.19
209.06,558.57
209.51,557.76
209.96,556.77
210.41,555.57
210.87,554.19
211.32,552.65
211.77,551.00
212.23,549.29
212.68,547.59
213.13,545.97
213.58,544.51
214.04,543.24
214.49,542.22
214.94,541.45
215.39,540.91
215.84,540.56
216.30,540.33
216.75,540.11
217.20,539.82
217.65,539.35
218.11,538.63
218.56,537.63
219.01,536.33
219.46,534.77
219.91,533.02
220.37,531.19
220.82,529.40
221.27,527.79
221.72,526.49
222.17,525.62
222.63,525.26
223.08,525.46
223.53,526.24
223.98,527.55
224.43,529.34
224.88,531.46
225.34,533.79
225.79,536.16
226.24,538.40
226.69,540.36
227.14,541.93
227.59,543.02
228.04,543.63
228.50,543.78
228.95,543.55
229.40,543.05
229.85,542.40
230.30,541.72
230.75,541.11
231.20,540.64
231.66,540.35
232.11,540.22
232.56,540.23
233.01,540.34
233.46,540.50
233.91,540.66
234.36,540.80
234.81,540.91
235.26,540.99
235.71,541.07
236.17,541.18
236.62,541.33
237.07,541.55
237.52,541.82
237.97,542.14
238.42,542.44
238.87,542.69
239.32,542.84
239.77,542.84
240.22,542.68
240.67,542.37
241.12,541.95
241.57,541.50
242.02,541.11
242.47,540.89
242.92,540.94
243.37,541.33
243.82,542.09
244.27,543.24
244.72,544.73
245.18,546.49
245.63,548.43
246.08,550.44
246.53,552.40
246.98,554.22
247.43,555.82
247.88,557.12
248.33,558.10
248.78,558.72
249.23,558.96
249.68,558.81
250.12,558.26
250.57,557.31
251.02,555.95
251.47,554.19
251.92,552.06
252.37,549.59
252.82,546.87
253.27,543.98
253.72,541.03
254.17,538.15
254.62,535.48
255.07,533.15
255.52,531.29
255.97,530.00
256.42,529.33
256.87,529.32
257.32,529.95
257.77,531.16
258.22,532.83
258.66,534.83
259.11,537.00
259.56,539.16
260.01,541.15
260.46,542.82
260.91,544.06
261.36,544.81
261.81,545.07
262.26,544.87
262.71,544.31
263.15,543.53
263.60,542.68
264.05,541.94
264.50,541.46
264.95,541.38
265.40,541.80
265.85,542.76
266.30,544.26
266.74,546.26
267.19,548.65
267.64,551.32
268.09,554.11
268.54,556.88
268.99,559.49
269.43,561.80
269.88,563.72
270.33,565.17
270.78,566.13
271.23,566.61
271.68,566.65
272.12,566.32
272.57,565.75
273.02,565.04
273.47,564.34
273.92,563.77
274.36,563.45
274.81,563.46
275.26,563.85
275.71,564.62
276.16,565.71
276.60,567.04
277.05,568.47
277.50,569.85
277.95,571.03
278.39,571.87
278.84,572.24
279.29,572.09
279.74,571.40
280.19,570.18
280.63,568.52
281.08,566.49
281.53,564.22
281.98,561.81
282.42,559.38
282.87,557.01
283.32,554.80
283.76,552.82
284.21,551.14
284.66,549.81
285.11,548.89
285.55,548.42
286.00,548.43
286.45,548.89
286.89,549.78
287.34,551.03
287.79,552.53
288.23,554.18
288.68,555.88
289.13,557.51
289.58,559.00
290.02,560.31
290.47,561.40
290.92,562.28
291.36,562.94
291.81,563.41
292.26,563.68
292.70,563.74
293.15,563.59
293.60,563.21
294.04,562.60
294.49,561.78
294.93,560.79
295.38,559.71
295.83,558.60
296.27,557.54
296.72,556.62
297.17,555.86
297.61,555.28
298.06,554.85
298.50,554.51
298.95,554.16
299.40,553.73
299.84,553.13
300.29,552.30
300.73,551.24
301.18,549.99
301.63,548.62
302.07,547.25
302.52,546.03
302.96,545.11
303.41,544.63
303.85,544.71
304.30,545.42
304.75,546.78
305.19,548.76
305.64,551.26
306.08,554.17
306.53,557.33
306.97,560.56
307.42,563.73
307.86,566.71
308.31,569.39
308.75,571.74
309.20,573.75
309.65,575.45
310.09,576.88
310.54,578.11
310.98,579.20
311.43,580.18
311.87,581.09
312.32,581.93
312.76,582.68
313.21,583.33
313.65,583.84
314.10,584.18
314.54,584.31
314.99,584.21
315.43,583.86
315.87,583.24
316.32,582.35
316.76,581.20
317.21,579.81
317.65,578.21
318.10,576.45
318.54,574.57
318.99,572.62
319.43,570.63
319.88,568.64
320.32,566.69
320.76,564.78
321.21,562.93
321.65,561.18
322.10,559.52
322.54,558.01
322.99,556.67
323.43,555.55
323.87,554.70
324.32,554.16
324.76,553.97
325.21,554.12
325.65,554.61
326.09,555.40
326.54,556.44
326.98,557.66
327.42,558.97
327.87,560.31
328.31,561.62
328.76,562.86
329.20,564.02
329.64,565.10
330.09,566.13
330.53,567.13
330.97,568.13
331.42,569.15
331.86,570.18
332.30,571.20
332.75,572.14
333.19,572.94
333.63,573.51
334.08,573.75
334.52,573.60
334.96,573.00
335.41,571.93
335.85,570.40
336.29,568.46
336.74,566.21
337.18,563.76
337.62,561.24
338.06,558.79
338.51,556.54
338.95,554.58
339.39,552.99
339.84,551.80
340.28,551.00
340.72,550.54
341.16,550.37
341.61,550.39
342.05,550.52
342.49,550.68
342.93,550.81
343.38,550.86
343.82,550.83
344.26,550.73
344.70,550.61
345.15,550.53
345.59,550.54
346.03,550.73
346.47,551.13
346.92,551.80
347.36,552.75
347.80,553.97
348.24,555.44
348.68,557.13
349.13,558.99
349.57,560.97
350.01,563.03
350.45,565.12
350.89,567.24
351.34,569.35
351.78,571.46
352.22,573.56
352.66,575.64
353.10,577.70
353.54,579.70
353.99,581.62
354.43,583.40
354.87,585.00
355.31,586.36
355.75,587.46
356.19,588.28
356.63,588.82
357.08,589.14
357.52,589.29
357.96,589.36
358.40,589.43
358.84,589.59
359.28,589.89
359.72,590.38
360.16,591.07
360.60,591.93
361.05,592.92
361.49,593.97
361.93,595.01
362.37,595.98
362.81,596.80
363.25,597.44
363.69,597.86
364.13,598.07
364.57,598.06
365.01,597.87
365.45,597.53
365.89,597.08
366.33,596.58
366.78,596.08
367.22,595.62
367.66,595.25
368.10,595.01
368.54,594.94
368.98,595.04
369.42,595.34
369.86,595.82
370.30,596.47
370.74,597.28
371.18,598.20
371.62,599.20
372.06,600.22
372.50,601.21
372.94,602.12
373.38,602.89
373.82,603.48
374.26,603.88
374.70,604.08
375.14,604.09
375.58,603.97
376.02,603.75
376.46,603.51
376.90,603.32
377.34,603.26
377.78,603.40
378.21,603.78
378.65,604.46
379.09,605.47
379.53,606.83
379.97,608.55
380.41,610.61
380.85,613.01
381.29,615.71
381.73,618.68
382.17,621.86
382.61,625.21
383.05,628.65
383.49,632.11
383.93,635.50
384.36,638.76
384.80,641.79
385.24,644.54
385.68,646.94
386.12,648.94
386.56,650.55
387.00,651.78
387.44,652.68
387.87,653.33
388.31,653.86
388.75,654.38
389.19,655.06
389.63,656.01
390.07,657.36
390.51,659.18
390.94,661.50
391.38,664.32
391.82,667.56
392.26,671.14
392.70,674.93
393.14,678.79
393.57,682.60
394.01,686.24
394.45,689.63
394.89,692.72
395.33,695.49
395.76,697.96
396.20,700.18
396.64,702.24
397.08,704.22
397.52,706.21
397.95,708.31
398.39,710.60
398.83,713.13
399.27,715.93
399.70,718.98
400.14,722.24
400.58,725.66
401.02,729.15
401.45,732.64
401.89,736.08
402.33,739.43
402.77,742.71
403.20,745.98
403.64,749.33
404.08,752.88
404.52,756.77
404.95,761.12
405.39,766.05
405.83,771.61
406.26,777.78
406.70,784.53
407.14,791.72
407.58,799.20
408.01,806.79
408.45,814.32
408.89,821.63
409.32,828.62
409.76,835.24
410.20,841.52
410.63,847.54
411.07,853.44
411.51,859.37
411.94,865.51
412.38,872.02
412.82,879.01
413.25,886.54
413.69,894.64
414.12,903.25
414.56,912.28
415.00,921.59
415.43,931.05
415.87,940.50
416.31,949.82
416.74,958.92
417.18,967.76
417.61,976.32
418.05,984.64
418.49,992.78
418.92,1000.80
419.36,1008.77
419.79,1016.75
420.23,1024.78
420.67,1032.87
421.10,1041.01
421.54,1049.21
421.97,1057.44
422.41,1065.72
422.84,1074.04
423.28,1082.44
423.71,1090.96
424.15,1099.66
424.59,1108.58
425.02,1117.80
425.46,1127.37
425.89,1137.34
426.33,1147.74
426.76,1158.58
427.20,1169.85
427.63,1181.52
428.07,1193.51
428.50,1205.73
428.94,1218.07
429.37,1230.40
429.81,1242.60
430.24,1254.54
430.68,1266.15
431.11,1277.38
431.55,1288.23
431.98,1298.71
432.42,1308.92
432.85,1318.94
433.28,1328.87
433.72,1338.83
434.15,1348.89
434.59,1359.10
435.02,1369.47
435.46,1379.99
435.89,1390.57
436.33,1401.14
436.76,1411.60
437.19,1421.84
437.63,1431.79
438.06,1441.39
438.50,1450.64
438.93,1459.55
439.37,1468.16
439.80,1476.53
440.23,1484.74
440.67,1492.87
441.10,1500.98
441.53,1509.16
441.97,1517.46
442.40,1525.96
442.84,1534.70
443.27,1543.76
443.70,1553.15
444.14,1562.91
444.57,1573.00
445.00,1583.39
445.44,1593.99
445.87,1604.69
446.30,1615.34
446.74,1625.81
447.17,1635.98
447.60,1645.75
448.04,1655.06
448.47,1663.93
448.90,1672.42
449.34,1680.66
449.77,1688.85
450.20,1697.19
450.64,1705.93
451.07,1715.29
451.50,1725.49
451.93,1736.68
452.37,1748.99
452.80,1762.44
453.23,1777.04
453.67,1792.73
454.10,1809.40
454.53,1826.93
454.96,1845.18
455.40,1863.99
455.83,1883.21
456.26,1902.68
456.69,1922.25
457.13,1941.78
457.56,1961.14
457.99,1980.24
458.42,1999.01
458.86,2017.45
459.29,2035.59
459.72,2053.49
460.15,2071.26
460.58,2088.99
461.02,2106.79
461.45,2124.73
461.88,2142.87
462.31,2161.23
462.74,2179.85
463.18,2198.76
463.61,2218.03
464.04,2237.73
464.47,2258.01
464.90,2279.01
465.33,2300.86
465.77,2323.65
466.20,2347.45
466.63,2372.23
467.06,2397.92
467.49,2424.42
467.92,2451.63
468.35,2479.45
468.78,2507.87
469.22,2536.91
469.65,2566.62
470.08,2597.11
470.51,2628.43
470.94,2660.59
471.37,2693.52
471.80,2727.11
472.23,2761.17
472.66,2795.54
473.10,2830.09
473.53,2864.81
473.96,2899.79
474.39,2935.26
474.82,2971.52
475.25,3008.92
475.68,3047.75
476.11,3088.19
476.54,3130.28
476.97,3173.87
477.40,3218.67
477.83,3264.28
478.26,3310.31
478.69,3356.39
479.12,3402.26
479.55,3447.84
479.98,3493.12
480.41,3538.23
480.84,3583.31
481.27,3628.46
481.70,3673.68
482.13,3718.88
482.56,3763.86
482.99,3808.40
483.42,3852.29
483.85,3895.43
484.28,3937.85
484.71,3979.77
485.14,4021.54
485.57,4063.55
486.00,4106.18
486.43,4149.67
486.86,4194.06
487.29,4239.17
487.72,4284.58
488.15,4329.76
488.58,4374.14
489.01,4417.26
489.44,4458.86
489.87,4498.96
490.30,4537.84
490.72,4575.99
491.15,4613.97
491.58,4652.32
492.01,4691.38
492.44,4731.19
492.87,4771.49
493.30,4811.74
493.73,4851.25
494.16,4889.32
494.59,4925.39
495.01,4959.23
495.44,4990.97
495.87,5021.13
496.30,5050.51
496.73,5080.02
497.16,5110.53
497.59,5142.67
498.01,5176.66
498.44,5212.32
498.87,5249.02
499.30,5285.87
499.73,5321.89
500.16,5356.21
500.58,5388.26
501.01,5417.90
501.44,5445.48
501.87,5471.74
502.30,5497.71
502.72,5524.47
503.15,5552.93
503.58,5583.65
504.01,5616.72
504.44,5651.75
504.86,5687.88
505.29,5724.06
505.72,5759.15
506.15,5792.26
506.57,5822.87
507.00,5851.00
507.43,5877.19
507.86,5902.43
508.28,5927.94
508.71,5954.96
509.14,5984.48
509.57,6016.97
509.99,6052.34
510.42,6089.84
510.85,6128.19
511.27,6165.77
511.70,6200.94
512.13,6232.26
512.56,6258.85
512.98,6280.50
513.41,6297.76
513.84,6311.86
514.26,6324.57
514.69,6337.84
515.12,6353.53
515.54,6373.11
515.97,6397.35
516.40,6426.30
516.82,6459.17
517.25,6494.58
517.68,6530.73
518.10,6565.72
518.53,6597.93
518.95,6626.22
519.38,6650.18
519.81,6670.18
520.23,6687.26
520.66,6703.00
521.09,6719.18
521.51,6737.47
521.94,6759.11
522.36,6784.64
522.79,6813.82
523.22,6845.58
523.64,6878.19
524.07,6909.50
524.49,6937.35
524.92,6959.85
525.34,6975.77
525.77,6984.75
526.20,6987.38
526.62,6985.16
527.05,6980.29
527.47,6975.35
527.90,6972.92
528.32,6975.16
528.75,6983.56
529.17,6998.62
529.60,7019.86
530.02,7045.87
530.45,7074.53
530.87,7103.35
531.30,7129.83
531.72,7151.86
532.15,7168.04
532.57,7177.83
533.00,7181.68
533.42,7180.94
533.85,7177.59
534.27,7173.99
534.70,7172.52
535.12,7175.15
535.55,7183.22
535.97,7197.16
536.40,7216.50
536.82,7239.87
537.25,7265.24
537.67,7290.25
538.09,7312.50
538.52,7329.97
538.94,7341.30
539.37,7345.99
539.79,7344.52
540.22,7338.21
540.64,7329.10
541.06,7319.64
541.49,7312.31
541.91,7309.29
542.34,7312.14
542.76,7321.61
543.18,7337.49
543.61,7358.69
544.03,7383.39
544.46,7409.28
544.88,7433.92
545.30,7455.06
545.73,7470.98
546.15,7480.72
546.57,7484.24
547.00,7482.39
547.42,7476.86
547.84,7469.88
548.27,7463.97
548.69,7461.57
549.11,7464.68
549.54,7474.61
549.96,7491.76
550.38,7515.52
550.81,7544.37
551.23,7576.05
551.65,7607.81
552.07,7636.79
552.50,7660.38
552.92,7676.58
553.34,7684.26
553.77,7683.32
554.19,7674.76
554.61,7660.54
555.03,7643.37
555.46,7626.35
555.88,7612.64
556.30,7604.98
556.72,7605.41
557.15,7614.98
557.57,7633.60
557.99,7660.06
558.41,7692.20
558.84,7727.18
559.26,7761.80
559.68,7792.98
560.10,7818.10
560.52,7835.38
560.95,7844.06
561.37,7844.56
561.79,7838.42
562.21,7828.09
562.63,7816.71
563.06,7807.68
563.48,7804.29
563.90,7809.33
564.32,7824.74
564.74,7851.39
565.16,7888.97
565.58,7936.01
566.01,7990.06
566.43,8047.91
566.85,8106.01
567.27,8160.80
567.69,8209.12
568.11,8248.57
568.53,8277.77
568.96,8296.47
569.38,8305.62
569.80,8307.23
570.22,8304.13
570.64,8299.66
571.06,8297.24
571.48,8299.96
571.90,8310.22
572.32,8329.38
572.74,8357.60
573.16,8393.76
573.58,8435.59
574.01,8479.85
574.43,8522.73
574.85,8560.26
575.27,8588.73
575.69,8605.18
576.11,8607.67
576.53,8595.59
576.95,8569.74
577.37,8532.26
577.79,8486.46
578.21,8436.51
578.63,8386.99
579.05,8342.47
579.47,8307.04
579.89,8283.89
580.31,8275.04
580.73,8281.10
581.15,8301.27
581.57,8333.46
581.99,8374.45
582.41,8420.33
582.83,8466.82
583.25,8509.73
583.67,8545.37
584.09,8570.91
584.51,8584.63
584.93,8586.10
585.34,8576.21
585.76,8557.08
586.18,8531.88
586.60,8504.53
587.02,8479.34
587.44,8460.61
587.86,8452.20
588.28,8457.19
588.70,8477.57
589.12,8514.04
589.54,8565.99
589.95,8631.50
590.37,8707.62
590.79,8790.59
591.21,8876.27
591.63,8960.53
592.05,9039.67
592.47,9110.76
592.89,9171.88
593.30,9222.35
593.72,9262.70
594.14,9294.65
594.56,9320.88
594.98,9344.76
595.40,9370.02
595.81,9400.40
596.23,9439.24
596.65,9489.19
597.07,9551.95
597.49,9628.07
597.90,9716.94
598.32,9816.74
598.74,9924.64
599.16,10036.98
599.58,10149.55
599.99,10257.92
600.41,10357.76
600.83,10445.15
601.25,10516.89
601.66,10570.69
602.08,10605.36
602.50,10620.91
602.92,10618.49
603.33,10600.38
603.75,10569.76
604.17,10530.53
604.59,10486.99
605.00,10443.51
605.42,10404.22
605.84,10372.70
606.25,10351.68
606.67,10342.86
607.09,10346.79
607.51,10362.82
607.92,10389.18
608.34,10423.15
608.76,10461.29
609.17,10499.72
609.59,10534.49
610.01,10561.84
610.42,10578.59
610.84,10582.37
611.26,10571.82
611.67,10546.70
612.09,10507.95
612.51,10457.59
612.92,10398.59
613.34,10334.59
613.75,10269.67
614.17,10207.97
614.59,10153.37
615.00,10109.21
615.42,10078.01
615.83,10061.29
616.25,10059.51
616.67,10072.03
617.08,10097.22
617.50,10132.61
617.91,10175.13
618.33,10221.35
618.75,10267.74
619.16,10310.95
619.58,10348.00
619.99,10376.54
620.41,10394.90
620.82,10402.28
621.24,10398.70
621.65,10385.05
622.07,10362.97
622.48,10334.75
622.90,10303.21
623.31,10271.43
623.73,10242.61
624.14,10219.78
624.56,10205.65
624.97,10202.32
625.39,10211.22
625.80,10232.92
626.22,10267.08
626.63,10312.54
627.05,10367.32
627.46,10428.82
627.88,10493.97
628.29,10559.52
628.71,10622.21
629.12,10679.04
629.54,10727.49
629.95,10765.68
630.37,10792.48
630.78,10807.60
631.19,10811.60
631.61,10805.82
632.02,10792.26
632.44,10773.46
632.85,10752.26
633.26,10731.61
633.68,10714.35
634.09,10703.01
634.51,10699.58
634.92,10705.48
635.33,10721.40
635.75,10747.35
636.16,10782.66
636.57,10826.09
636.99,10875.97
637.40,10930.29
637.82,10986.88
638.23,11043.54
638.64,11098.12
639.06,11148.71
639.47,11193.64
639.88,11231.60
640.30,11261.72
640.71,11283.56
641.12,11297.20
641.53,11303.19
641.95,11302.56
642.36,11296.80
642.77,11287.72
643.19,11277.39
643.60,11268.02
644.01,11261.80
644.42,11260.77
644.84,11266.69
645.25,11280.89
645.66,11304.23
646.08,11336.96
646.49,11378.76
646.90,11428.72
647.31,11485.39
647.73,11546.91
648.14,11611.10
648.55,11675.59
648.96,11738.05
649.37,11796.25
649.79,11848.31
650.20,11892.72
650.61,11928.49
651.02,11955.20
651.43,11972.99
651.85,11982.52
652.26,11984.96
652.67,11981.86
653.08,11975.09
653.49,11966.67
653.90,11958.72
654.32,11953.29
654.73,11952.27
655.14,11957.29
655.55,11969.61
655.96,11990.08
656.37,12019.04
656.78,12056.30
657.20,12101.19
657.61,12152.52
658.02,12208.70
658.43,12267.84
658.84,12327.84
659.25,12386.58
659.66,12442.00
660.07,12492.25
660.48,12535.81
660.90,12571.58
661.31,12598.89
661.72,12617.59
662.13,12627.97
662.54,12630.82
662.95,12627.29
663.36,12618.87
663.77,12607.29
664.18,12594.42
664.59,12582.21
665.00,12572.58
665.41,12567.33
665.82,12568.07
666.23,12576.15
666.64,12592.56
667.05,12617.93
667.46,12652.41
667.87,12695.65
668.28,12746.83
668.69,12804.62
669.10,12867.23
669.51,12932.54
669.92,12998.19
670.33,13061.72
670.74,13120.73
671.15,13173.06
671.56,13216.91
671.97,13250.98
672.38,13274.50
672.79,13287.30
673.20,13289.77
673.61,13282.84
674.02,13267.86
674.42,13246.56
674.83,13220.90
675.24,13192.99
675.65,13165.02
676.06,13139.11
676.47,13117.26
676.88,13101.27
677.29,13092.61
677.70,13092.45
678.11,13101.50
678.51,13120.02
678.92,13147.80
679.33,13184.15
679.74,13227.95
680.15,13277.70
680.56,13331.62
680.97,13387.74
681.37,13444.00
681.78,13498.38
682.19,13549.01
682.60,13594.20
683.01,13632.57
683.42,13663.09
683.82,13685.08
684.23,13698.26
684.64,13702.75
685.05,13699.07
685.45,13688.08
685.86,13670.98
686.27,13649.24
686.68,13624.56
687.09,13598.77
687.49,13573.77
687.90,13551.40
688.31,13533.42
688.72,13521.35
689.12,13516.40
689.53,13519.47
689.94,13531.01
690.35,13551.07
690.75,13579.27
691.16,13614.85
691.57,13656.70
691.97,13703.46
692.38,13753.55
692.79,13805.31
693.20,13857.06
693.60,13907.17
694.01,13954.15
694.42,13996.66
694.82,14033.60
695.23,14064.12
695.64,14087.59
696.04,14103.67
696.45,14112.26
696.86,14113.49
697.26,14107.76
697.67,14095.68
698.07,14078.08
698.48,14056.01
698.89,14030.72
699.29,14003.62
699.70,13976.28
700.11,13950.34
700.51,13927.45
700.92,13909.20
701.32,13896.99
701.73,13891.98
702.14,13894.99
702.54,13906.44
702.95,13926.32
703.35,13954.21
703.76,13989.32
704.16,14030.53
704.57,14076.48
704.97,14125.71
705.38,14176.65
705.79,14227.75
706.19,14277.53
706.60,14324.58
707.00,14367.58
707.41,14405.36
707.81,14436.86
708.22,14461.17
708.62,14477.56
709.03,14485.53
709.43,14484.85
709.84,14475.59
710.24,14458.17
710.65,14433.40
711.05,14402.41
711.46,14366.70
711.86,14327.99
712.27,14288.21
712.67,14249.39
713.07,14213.52
713.48,14182.50
713.88,14158.01
714.29,14141.47
714.69,14133.93
715.10,14136.09
715.50,14148.23
715.90,14170.22
716.31,14201.52
716.71,14241.24
717.12,14288.11
717.52,14340.61
717.92,14396.96
718.33,14455.26
718.73,14513.51
719.14,14569.74
719.54,14622.04
719.94,14668.67
720.35,14708.09
720.75,14739.03
721.15,14760.53
721.56,14771.96
721.96,14773.04
722.36,14763.87
722.77,14744.90
723.17,14716.98
723.57,14681.25
723.98,14639.19
724.38,14592.50
724.78,14543.05
725.19,14492.80
725.59,14443.69
725.99,14397.56
726.39,14356.07
726.80,14320.65
727.20,14292.48
727.60,14272.44
728.00,14261.14
728.41,14258.95
728.81,14265.98
729.21,14282.13
729.61,14307.04
730.02,14340.14
730.42,14380.55
730.82,14427.15
731.22,14478.51
731.63,14532.95
732.03,14588.56
732.43,14643.30
732.83,14695.06
733.23,14741.82
733.64,14781.69
734.04,14813.05
734.44,14834.61
734.84,14845.44
735.24,14844.99
735.64,14833.10
736.05,14809.98
736.45,14776.15
736.85,14732.46
737.25,14680.04
737.65,14620.28
738.05,14554.80
738.45,14485.41
738.86,14414.08
739.26,14342.88
739.66,14273.88
740.06,14209.06
740.46,14150.27
740.86,14099.10
741.26,14056.80
741.66,14024.26
742.06,14001.95
742.46,13989.92
742.87,13987.86
743.27,13995.12
743.67,14010.80
744.07,14033.83
744.47,14063.04
744.87,14097.24
745.27,14135.28
745.67,14176.05
746.07,14218.51
746.47,14261.70
746.87,14304.66
747.27,14346.50
747.67,14386.30
748.07,14423.19
748.47,14456.36
748.87,14485.07
749.27,14508.75
749.67,14527.03
750.07,14539.76
750.47,14547.07
750.87,14549.36
751.27,14547.23
751.67,14541.46
752.07,14532.94
752.47,14522.57
752.87,14511.25
753.27,14499.78
753.66,14488.84
754.06,14479.02
754.46,14470.80
754.86,14464.54
755.26,14460.55
755.66,14459.10
756.06,14460.36
756.46,14464.49
756.86,14471.56
757.26,14481.51
757.65,14494.19
758.05,14509.24
758.45,14526.14
758.85,14544.16
759.25,14562.34
759.65,14579.57
760.05,14594.58
760.44,14605.99
760.84,14612.38
761.24,14612.36
761.64,14604.62
762.04,14588.00
762.44,14561.53
762.83,14524.49
763.23,14476.43
763.63,14417.17
764.03,14346.81
764.43,14265.75
764.82,14174.66
765.22,14074.45
765.62,13966.29
766.02,13851.52
766.41,13731.69
766.81,13608.45
767.21,13483.57
767.61,13358.83
768.00,13235.98
768.40,13116.75
768.80,13002.72
769.20,12895.34
769.59,12795.88
769.99,12705.40
770.39,12624.76
770.79,12554.58
771.18,12495.24
771.58,12446.93
771.98,12409.57
772.37,12382.86
772.77,12366.29
773.17,12359.09
773.56,12360.30
773.96,12368.73
774.36,12382.99
774.75,12401.50
775.15,12422.57
775.55,12444.41
775.94,12465.21
776.34,12483.19
776.73,12496.71
777.13,12504.30
777.53,12504.71
777.92,12496.95
778.32,12480.30
778.72,12454.30
779.11,12418.73
779.51,12373.60
779.90,12319.08
780.30,12255.52
780.69,12183.40
781.09,12103.33
781.49,12016.09
781.88,11922.57
782.28,11823.87
782.67,11721.27
783.07,11616.22
783.46,11510.37
783.86,11405.55
784.25,11303.69
784.65,11206.75
785.04,11116.66
785.44,11035.21
785.83,10963.94
786.23,10904.04
786.62,10856.32
787.02,10821.12
787.41,10798.35
787.81,10787.49
788.20,10787.64
788.60,10797.61
788.99,10815.97
789.39,10841.18
789.78,10871.60
790.18,10905.61
790.57,10941.62
790.97,10978.08
791.36,11013.58
791.75,11046.77
792.15,11076.42
792.54,11101.43
792.94,11120.81
793.33,11133.69
793.72,11139.30
794.12,11137.01
794.51,11126.31
794.91,11106.78
795.30,11078.17
795.69,11040.32
796.09,10993.24
796.48,10937.12
796.87,10872.33
797.27,10799.45
797.66,10719.30
798.05,10632.89
798.45,10541.48
798.84,10446.50
799.23,10349.50
799.63,10252.14
800.02,10156.11
800.41,10063.03
800.81,9974.47
801.20,9891.84
801.59,9816.37
801.99,9749.12
802.38,9690.92
802.77,9642.42
803.16,9604.01
803.56,9575.91
803.95,9558.09
804.34,9550.30
804.73,9552.04
805.13,9562.59
805.52,9580.98
805.91,9606.04
806.30,9636.42
806.69,9670.65
807.09,9707.20
807.48,9744.54
807.87,9781.17
808.26,9815.71
808.66,9846.87
809.05,9873.53
809.44,9894.68
809.83,9909.41
810.22,9916.96
810.61,9916.67
811.01,9907.97
811.40,9890.44
811.79,9863.83
812.18,9828.04
812.57,9783.19
812.96,9729.64
813.35,9667.96
813.75,9598.93
814.14,9523.56
814.53,9443.00
814.92,9358.52
815.31,9271.44
815.70,9183.14
816.09,9094.92
816.48,9008.07
816.87,8923.76
817.26,8843.07
817.65,8766.96
818.04,8696.31
818.44,8631.88
818.83,8574.34
819.22,8524.30
819.61,8482.24
820.00,8448.58
820.39,8423.59
820.78,8407.43
821.17,8400.07
821.56,8401.29
821.95,8410.67
822.34,8427.55
822.73,8451.07
823.12,8480.16
823.51,8513.57
823.90,8549.95
824.29,8587.87
824.68,8625.86
825.07,8662.53
825.46,8696.54
825.85,8726.69
826.24,8751.95
826.62,8771.43
827.01,8784.47
827.40,8790.59
827.79,8789.48
828.18,8781.05
828.57,8765.36
828.96,8742.62
829.35,8713.19
829.74,8677.53
830.13,8636.17
830.52,8589.71
830.90,8538.79
831.29,8484.05
831.68,8426.14
832.07,8365.70
832.46,8303.38
832.85,8239.82
833.24,8175.67
833.62,8111.58
834.01,8048.26
834.40,7986.39
834.79,7926.70
835.18,7869.93
835.57,7816.77
835.95,7767.93
836.34,7724.04
836.73,7685.63
837.12,7653.18
837.51,7627.02
837.89,7607.37
838.28,7594.33
838.67,7587.86
839.06,7587.81
839.44,7593.90
839.83,7605.75
840.22,7622.87
840.61,7644.64
840.99,7670.35
841.38,7699.20
841.77,7730.29
842.16,7762.69
842.54,7795.45
842.93,7827.62
843.32,7858.36
843.70,7886.88
844.09,7912.55
844.48,7934.83
844.86,7953.33
845.25,7967.73
845.64,7977.80
846.02,7983.33
846.41,7984.14
846.80,7980.05
847.18,7970.90
847.57,7956.58
847.96,7937.01
848.34,7912.23
848.73,7882.38
849.12,7847.72
849.50,7808.66
849.89,7765.72
850.27,7719.52
850.66,7670.78
851.05,7620.27
851.43,7568.77
851.82,7517.07
852.20,7465.94
852.59,7416.11
852.97,7368.26
853.36,7323.02
853.75,7280.96
854.13,7242.59
854.52,7208.36
854.90,7178.67
855.29,7153.87
855.67,7134.21
856.06,7119.90
856.44,7111.03
856.83,7107.55
857.21,7109.30
857.60,7115.93
857.98,7126.97
858.37,7141.80
858.75,7159.70
859.14,7179.88
859.52,7201.57
859.91,7223.98
860.29,7246.45
860.68,7268.38
861.06,7289.31
861.44,7308.88
861.83,7326.85
862.21,7343.05
862.60,7357.37
862.98,7369.77
863.37,7380.21
863.75,7388.64
864.13,7395.01
864.52,7399.26
864.90,7401.27
865.29,7400.89
865.67,7397.94
866.05,7392.19
866.44,7383.46
866.82,7371.54
867.20,7356.32
867.59,7337.75
867.97,7315.88
868.35,7290.90
868.74,7263.06
869.12,7232.72
869.50,7200.29
869.89,7166.18
870.27,7130.84
870.65,7094.68
871.04,7058.09
871.42,7021.48
871.80,6985.25
872.19,6949.80
872.57,6915.58
872.95,6883.06
873.33,6852.70
873.72,6824.95
874.10,6800.22
874.48,6778.87
874.86,6761.18
875.25,6747.37
875.63,6737.59
876.01,6731.94
876.39,6730.49
876.77,6733.28
877.16,6740.34
877.54,6751.63
877.92,6767.12
878.30,6786.68
878.68,6810.16
879.07,6837.33
879.45,6867.88
879.83,6901.49
880.21,6937.81
880.59,6976.49
880.97,7017.22
881.36,7059.74
881.74,7103.82
882.12,7149.34
882.50,7196.22
882.88,7244.41
883.26,7293.94
883.64,7344.81
884.02,7397.07
884.41,7450.70
884.79,7505.69
885.17,7561.95
885.55,7619.34
885.93,7677.64
886.31,7736.56
886.69,7795.69
887.07,7854.58
887.45,7912.70
887.83,7969.46
888.21,8024.28
888.59,8076.56
888.97,8125.77
889.35,8171.41
889.73,8213.08
890.11,8250.40
890.49,8283.07
890.87,8310.81
891.25,8333.35
891.63,8350.42
892.01,8361.74
892.39,8367.06
892.77,8366.14
893.15,8358.79
893.53,8344.95
893.91,8324.64
894.29,8298.03
894.67,8265.43
895.05,8227.25
895.43,8184.02
895.81,8136.28
896.19,8084.63
896.57,8029.62
896.95,7971.78
897.32,7911.55
897.70,7849.32
898.08,7785.39
898.46,7719.99
898.84,7653.31
899.22,7585.48
899.60,7516.59
899.98,7446.73
900.35,7375.96
900.73,7304.35
901.11,7231.98
901.49,7158.93
901.87,7085.31
902.25,7011.28
902.63,6936.99
903.00,6862.65
903.38,6788.50
903.76,6714.81
904.14,6641.88
904.52,6570.04
904.89,6499.62
905.27,6430.94
905.65,6364.29
906.03,6299.88
906.40,6237.86
906.78,6178.27
907.16,6121.03
907.54,6066.01
907.91,6012.97
908.29,5961.64
908.67,5911.76
909.05,5863.10
909.42,5815.46
909.80,5768.74
910.18,5722.89
910.55,5677.93
910.93,5633.92
911.31,5590.90
911.68,5548.92
912.06,5508.00
912.44,5468.10
912.82,5429.17
913.19,5391.11
913.57,5353.83
913.94,5317.25
914.32,5281.33
914.70,5246.03
915.07,5211.38
915.45,5177.41
915.83,5144.19
916.20,5111.77
916.58,5080.20
916.95,5049.54
917.33,5019.81
917.71,4991.03
918.08,4963.19
918.46,4936.30
918.83,4910.32
919.21,4885.23
919.58,4860.97
919.96,4837.48
920.34,4814.67
920.71,4792.41
921.09,4770.60
921.46,4749.09
921.84,4727.78
922.21,4706.56
922.59,4685.37
922.96,4664.18
923.34,4643.00
923.71,4621.85
924.09,4600.79
924.46,4579.88
924.84,4559.15
925.21,4538.63
925.59,4518.33
925.96,4498.20
926.34,4478.19
926.71,4458.22
927.08,4438.18
927.46,4417.98
927.83,4397.51
928.21,4376.69
928.58,4355.46
928.96,4333.78
929.33,4311.66
929.70,4289.11
930.08,4266.20
930.45,4243.00
930.83,4219.59
931.20,4196.08
931.57,4172.57
931.95,4149.12
932.32,4125.81
932.69,4102.66
933.07,4079.68
933.44,4056.86
933.81,4034.15
934.19,4011.51
934.56,3988.89
934.93,3966.27
935.31,3943.62
935.68,3920.95
936.05,3898.30
936.43,3875.70
936.80,3853.21
937.17,3830.89
937.54,3808.79
937.92,3786.97
938.29,3765.44
938.66,3744.25
939.03,3723.41
939.41,3702.93
939.78,3682.85
940.15,3663.16
940.52,3643.90
940.90,3625.06
941.27,3606.63
941.64,3588.58
942.01,3570.85
942.38,3553.35
942.76,3535.99
943.13,3518.66
943.50,3501.24
943.87,3483.62
944.24,3465.71
944.61,3447.46
944.99,3428.82
945.36,3409.78
945.73,3390.33
946.10,3370.48
946.47,3350.27
946.84,3329.72
947.21,3308.88
947.59,3287.78
947.96,3266.50
948.33,3245.12
948.70,3223.77
949.07,3202.56
949.44,3181.63
949.81,3161.13
950.18,3141.18
950.55,3121.86
950.92,3103.23
951.29,3085.26
951.66,3067.91
952.03,3051.06
952.41,3034.57
952.78,3018.25
953.15,3001.95
953.52,2985.50
953.89,2968.79
954.26,2951.76
954.63,2934.36
955.00,2916.63
955.37,2898.63
955.74,2880.46
956.11,2862.20
956.48,2843.95
956.84,2825.77
957.21,2807.68
957.58,2789.66
957.95,2771.64
958.32,2753.53
958.69,2735.22
959.06,2716.60
959.43,2697.59
959.80,2678.16
960.17,2658.33
960.54,2638.17
960.91,2617.81
961.28,2597.41
961.64,2577.15
962.01,2557.22
962.38,2537.77
962.75,2518.91
963.12,2500.74
963.49,2483.27
963.86,2466.50
964.22,2450.37
964.59,2434.80
964.96,2419.70
965.33,2404.97
965.70,2390.51
966.07,2376.26
966.43,2362.13
966.80,2348.07
967.17,2334.04
967.54,2320.00
967.91,2305.92
968.27,2291.75
968.64,2277.46
969.01,2263.02
969.38,2248.37
969.74,2233.48
970.11,2218.35
970.48,2202.94
970.85,2187.29
971.21,2171.42
971.58,2155.38
971.95,2139.23
972.31,2123.04
972.68,2106.89
973.05,2090.86
973.42,2075.00
973.78,2059.39
974.15,2044.06
974.52,2029.07
974.88,2014.43
975.25,2000.17
975.62,1986.26
975.98,1972.70
976.35,1959.46
976.72,1946.48
977.08,1933.72
977.45,1921.14
977.81,1908.70
978.18,1896.35
978.55,1884.10
978.91,1871.94
979.28,1859.86
979.64,1847.89
980.01,1836.01
980.38,1824.22
980.74,1812.50
981.11,1800.79
981.47,1789.05
981.84,1777.23
982.20,1765.28
982.57,1753.17
982.93,1740.88
983.30,1728.43
983.66,1715.84
984.03,1703.17
984.39,1690.47
984.76,1677.81
985.12,1665.25
985.49,1652.84
985.85,1640.61
986.22,1628.58
986.58,1616.76
986.95,1605.13
987.31,1593.68
987.68,1582.36
988.04,1571.16
988.41,1560.03
988.77,1548.95
989.13,1537.88
989.50,1526.80
989.86,1515.69
990.23,1504.52
990.59,1493.29
990.96,1481.97
991.32,1470.58
991.68,1459.10
992.05,1447.56
992.41,1435.99
992.77,1424.44
993.14,1412.98
993.50,1401.71
993.86,1390.73
994.23,1380.18
994.59,1370.17
994.95,1360.81
995.32,1352.16
995.68,1344.25
996.04,1337.03
996.41,1330.41
996.77,1324.21
997.13,1318.21
997.50,1312.17
997.86,1305.86
998.22,1299.04
998.58,1291.57
998.95,1283.35
999.31,1274.40
999.67,1264.77
1000.03,1254.64
1000.40,1244.20
1000.76,1233.65
1001.12,1223.24
1001.48,1213.12
1001.84,1203.46
1002.21,1194.33
1002.57,1185.76
1002.93,1177.72
1003.29,1170.12
1003.65,1162.87
1004.02,1155.82
1004.38,1148.83
1004.74,1141.75
1005.10,1134.45
1005.46,1126.82
1005.82,1118.75
1006.19,1110.22
1006.55,1101.20
1006.91,1091.74
1007.27,1081.93
1007.63,1071.90
1007.99,1061.80
1008.35,1051.82
1008.71,1042.12
1009.07,1032.88
1009.43,1024.22
1009.80,1016.22
1010.16,1008.94
1010.52,1002.37
1010.88,996.45
1011.24,991.09
1011.60,986.17
1011.96,981.56
1012.32,977.12
1012.68,972.69
1013.04,968.17
1013.40,963.44
1013.76,958.41
1014.12,953.04
1014.48,947.31
1014.84,941.24
1015.20,934.86
1015.56,928.25
1015.92,921.51
1016.28,914.72
1016.64,908.01
1017.00,901.46
1017.36,895.16
1017.72,889.19
1018.07,883.59
1018.43,878.40
1018.79,873.65
1019.15,869.32
1019.51,865.40
1019.87,861.86
1020.23,858.62
1020.59,855.59
1020.95,852.68
1021.31,849.74
1021.66,846.67
1022.02,843.34
1022.38,839.65
1022.74,835.54
1023.10,831.00
1023.46,826.06
1023.81,820.78
1024.17,815.28
1024.53,809.67
1024.89,804.09
1025.25,798.62
1025.60,793.41
1025.96,788.49
1026.32,783.86
1026.68,779.44
1027.04,774.57
1027.39,772.04
1027.75,768.28
1028.11,763.33
1028.47,757.33
1028.82,732.15
1029.18,828.67
1029.54,701.65
1029.90,701.65
1030.25,701.65
