wavelength,counts
188.65,46.10
189.10,46.10
189.56,46.10
190.01,46.10
190.47,46.10
190.92,76.04
191.37,88.73
191.83,103.25
192.28,119.43
192.74,136.98
193.19,155.53
193.64,174.66
194.10,194.66
194.55,215.32
195.01,236.45
195.46,257.87
195.91,279.41
196.37,300.95
196.82,322.39
197.27,343.63
197.73,364.60
198.18,385.24
198.63,405.45
199.09,425.11
199.54,444.03
199.99,462.02
200.45,478.86
200.90,494.31
201.35,508.15
201.81,520.23
202.26,530.45
202.71,538.80
203.17,545.36
203.62,550.28
204.07,553.79
204.53,556.15
204.98,557.63
205.43,558.48
205.89,558.93
206.34,559.12
206.79,559.15
207.25,559.05
207.70,558.83
208.15,558.45
208.60,557.88
209.06,557.09
209.51,556.09
209.96,554.89
210.41,553.54
210.87,552.11
211.32,550.66
211.77,549.25
212.23,547.93
212.68,546.72
213.13,545.63
213.58,544.67
214.04,543.82
214.49,543.09
214.94,542.47
215.39,541.99
215.84,541.67
216.30,541.53
216.75,541.61
217.20,541.92
217.65,542.45
218.11,543.18
218.56,544.07
219.01,545.05
219.46,546.04
219.91,546.97
220.37,547.79
220.82,548.44
221.27,548.92
221.72,549.23
222.17,549.43
222.63,549.55
223.08,549.64
223.53,549.76
223.98,549.95
224.43,550.20
224.88,550.52
225.34,550.89
225.79,551.30
226.24,551.72
226.69,552.15
227.14,552.58
227.59,553.03
228.04,553.50
228.50,554.00
228.95,554.55
229.40,555.14
229.85,555.75
230.30,556.36
230.75,556.95
231.20,557.47
231.66,557.90
232.11,558.24
232.56,558.49
233.01,558.66
233.46,558.80
233.91,558.98
234.36,559.25
234.81,559.69
235.26,560.37
235.71,561.33
236.17,562.60
236.62,564.19
237.07,566.04
237.52,568.10
237.97,570.28
238.42,572.46
238.87,574.54
239.32,576.41
239.77,578.00
240.22,579.25
240.67,580.13
241.12,580.68
241.57,580.94
242.02,580.97
242.47,580.85
242.92,580.65
243.37,580.41
243.82,580.15
244.27,579.86
244.72,579.50
245.18,579.03
245.63,578.39
246.08,577.55
246.53,576.50
246.98,575.25
247.43,573.86
247.88,572.38
248.33,570.91
248.78,569.52
249.23,568.29
249.68,567.25
250.12,566.44
250.57,565.83
251.02,565.42
251.47,565.17
251.92,565.05
252.37,565.04
252.82,565.12
253.27,565.28
253.72,565.53
254.17,565.88
254.62,566.33
255.07,566.86
255.52,567.46
255.97,568.11
256.42,568.79
256.87,569.48
257.32,570.16
257.77,570.83
258.22,571.50
258.66,572.19
259.11,572.91
259.56,573.67
260.01,574.47
260.46,575.30
260.91,576.11
261.36,576.86
261.81,577.49
262.26,577.94
262.71,578.15
263.15,578.08
263.60,577.70
264.05,577.00
264.50,575.99
264.95,574.70
265.40,573.16
265.85,571.44
266.30,569.59
266.74,567.69
267.19,565.79
267.64,563.97
268.09,562.28
268.54,560.77
268.99,559.49
269.43,558.46
269.88,557.70
270.33,557.22
270.78,557.00
271.23,557.05
271.68,557.36
272.12,557.90
272.57,558.67
273.02,559.69
273.47,560.94
273.92,562.44
274.36,564.19
274.81,566.18
275.26,568.37
275.71,570.72
276.16,573.14
276.60,575.54
277.05,577.79
277.50,579.79
277.95,581.41
278.39,582.57
278.84,583.21
279.29,583.31
279.74,582.90
280.19,582.03
280.63,580.79
281.08,579.28
281.53,577.61
281.98,575.86
282.42,574.11
282.87,572.38
283.32,570.68
283.76,568.97
284.21,567.23
284.66,565.38
285.11,563.41
285.55,561.27
286.00,559.00
286.45,556.62
286.89,554.23
287.34,551.92
287.79,549.81
288.23,548.02
288.68,546.63
289.13,545.70
289.58,545.25
290.02,545.26
290.47,545.66
290.92,546.37
291.36,547.30
291.81,548.34
292.26,549.43
292.70,550.52
293.15,551.57
293.60,552.59
294.04,553.58
294.49,554.57
294.93,555.55
295.38,556.53
295.83,557.49
296.27,558.39
296.72,559.20
297.17,559.89
297.61,560.46
298.06,560.92
298.50,561.30
298.95,561.66
299.40,562.07
299.84,562.56
300.29,563.20
300.73,563.96
301.18,564.84
301.63,565.74
302.07,566.60
302.52,567.29
302.96,567.72
303.41,567.82
303.85,567.54
304.30,566.89
304.75,565.92
305.19,564.71
305.64,563.38
306.08,562.05
306.53,560.86
306.97,559.91
307.42,559.31
307.86,559.09
308.31,559.30
308.75,559.92
309.20,560.91
309.65,562.22
310.09,563.77
310.54,565.46
310.98,567.20
311.43,568.90
311.87,570.50
312.32,571.96
312.76,573.24
313.21,574.37
313.65,575.36
314.10,576.25
314.54,577.06
314.99,577.81
315.43,578.50
315.87,579.08
316.32,579.53
316.76,579.78
317.21,579.80
317.65,579.56
318.10,579.06
318.54,578.34
318.99,577.46
319.43,576.47
319.88,575.46
320.32,574.47
320.76,573.53
321.21,572.65
321.65,571.80
322.10,570.92
322.54,569.96
322.99,568.86
323.43,567.56
323.87,566.05
324.32,564.33
324.76,562.43
325.21,560.39
325.65,558.30
326.09,556.22
326.54,554.24
326.98,552.43
327.42,550.86
327.87,549.61
328.31,548.71
328.76,548.23
329.20,548.20
329.64,548.64
330.09,549.57
330.53,550.96
330.97,552.79
331.42,555.02
331.86,557.59
332.30,560.43
332.75,563.47
333.19,566.66
333.63,569.95
334.08,573.27
334.52,576.59
334.96,579.85
335.41,582.96
335.85,585.86
336.29,588.43
336.74,590.59
337.18,592.23
337.62,593.28
338.06,593.69
338.51,593.46
338.95,592.64
339.39,591.33
339.84,589.64
340.28,587.73
340.72,585.76
341.16,583.86
341.61,582.17
342.05,580.76
342.49,579.66
342.93,578.89
343.38,578.40
343.82,578.13
344.26,578.02
344.70,577.99
345.15,577.98
345.59,577.96
346.03,577.88
346.47,577.76
346.92,577.58
347.36,577.37
347.80,577.13
348.24,576.88
348.68,576.59
349.13,576.27
349.57,575.89
350.01,575.41
350.45,574.81
350.89,574.06
351.34,573.17
351.78,572.14
352.22,571.01
352.66,569.85
353.10,568.74
353.54,567.77
353.99,567.03
354.43,566.60
354.87,566.54
355.31,566.85
355.75,567.53
356.19,568.52
356.63,569.74
357.08,571.08
357.52,572.43
357.96,573.68
358.40,574.74
358.84,575.56
359.28,576.12
359.72,576.40
360.16,576.46
360.60,576.34
361.05,576.10
361.49,575.80
361.93,575.51
362.37,575.29
362.81,575.20
363.25,575.30
363.69,575.67
364.13,576.36
364.57,577.44
365.01,578.99
365.45,581.02
365.89,583.56
366.33,586.56
366.78,589.96
367.22,593.64
367.66,597.45
368.10,601.24
368.54,604.83
368.98,608.09
369.42,610.89
369.86,613.17
370.30,614.91
370.74,616.11
371.18,616.84
371.62,617.17
372.06,617.20
372.50,617.01
372.94,616.69
373.38,616.28
373.82,615.84
374.26,615.38
374.70,614.91
375.14,614.43
375.58,613.93
376.02,613.40
376.46,612.84
376.90,612.26
377.34,611.68
377.78,611.14
378.21,610.70
378.65,610.41
379.09,610.34
379.53,610.55
379.97,611.08
380.41,611.98
380.85,613.25
381.29,614.87
381.73,616.82
382.17,619.05
382.61,621.51
383.05,624.14
383.49,626.90
383.93,629.74
384.36,632.64
384.80,635.58
385.24,638.53
385.68,641.50
386.12,644.44
386.56,647.34
387.00,650.16
387.44,652.85
387.87,655.36
388.31,657.62
388.75,659.60
389.19,661.24
389.63,662.53
390.07,663.49
390.51,664.14
390.94,664.56
391.38,664.84
391.82,665.08
392.26,665.39
392.70,665.87
393.14,666.59
393.57,667.60
394.01,668.93
394.45,670.56
394.89,672.45
395.33,674.56
395.76,676.85
396.20,679.27
396.64,681.79
397.08,684.42
397.52,687.16
397.95,690.01
398.39,693.01
398.83,696.14
399.27,699.40
399.70,702.75
400.14,706.17
400.58,709.61
401.02,713.04
401.45,716.46
401.89,719.88
402.33,723.36
402.77,726.99
403.20,730.88
403.64,735.13
404.08,739.86
404.52,745.16
404.95,751.08
405.39,757.67
405.83,764.91
406.26,772.76
406.70,781.18
407.14,790.07
407.58,799.36
408.01,808.94
408.45,818.74
408.89,828.63
409.32,838.53
409.76,848.35
410.20,857.97
410.63,867.33
411.07,876.35
411.51,884.99
411.94,893.23
412.38,901.08
412.82,908.59
413.25,915.84
413.69,922.92
414.12,929.94
414.56,937.01
415.00,944.23
415.43,951.68
415.87,959.44
416.31,967.54
416.74,976.00
417.18,984.80
417.61,993.89
418.05,1003.22
418.49,1012.70
418.92,1022.25
419.36,1031.77
419.79,1041.18
420.23,1050.39
420.67,1059.35
421.10,1068.03
421.54,1076.46
421.97,1084.68
422.41,1092.79
422.84,1100.88
423.28,1109.10
423.71,1117.59
424.15,1126.44
424.59,1135.75
425.02,1145.57
425.46,1155.90
425.89,1166.67
426.33,1177.82
426.76,1189.22
427.20,1200.76
427.63,1212.31
428.07,1223.76
428.50,1235.05
428.94,1246.11
429.37,1256.92
429.81,1267.51
430.24,1277.90
430.68,1288.13
431.11,1298.28
431.55,1308.38
431.98,1318.52
432.42,1328.72
432.85,1339.04
433.28,1349.47
433.72,1360.03
434.15,1370.70
434.59,1381.44
435.02,1392.21
435.46,1402.97
435.89,1413.66
436.33,1424.24
436.76,1434.67
437.19,1444.92
437.63,1454.97
438.06,1464.80
438.50,1474.41
438.93,1483.79
439.37,1492.94
439.80,1501.86
440.23,1510.57
440.67,1519.07
441.10,1527.36
441.53,1535.46
441.97,1543.39
442.40,1551.19
442.84,1558.91
443.27,1566.63
443.70,1574.44
444.14,1582.42
444.57,1590.69
445.00,1599.34
445.44,1608.42
445.87,1617.98
446.30,1628.01
446.74,1638.49
447.17,1649.35
447.60,1660.53
448.04,1671.96
448.47,1683.60
448.90,1695.42
449.34,1707.44
449.77,1719.69
450.20,1732.20
450.64,1745.02
451.07,1758.18
451.50,1771.71
451.93,1785.61
452.37,1799.88
452.80,1814.50
453.23,1829.45
453.67,1844.71
454.10,1860.27
454.53,1876.11
454.96,1892.19
455.40,1908.47
455.83,1924.89
456.26,1941.37
456.69,1957.84
457.13,1974.23
457.56,1990.48
457.99,2006.58
458.42,2022.55
458.86,2038.45
459.29,2054.37
459.72,2070.44
460.15,2086.76
460.58,2103.44
461.02,2120.55
461.45,2138.11
461.88,2156.09
462.31,2174.44
462.74,2193.05
463.18,2211.83
463.61,2230.70
464.04,2249.59
464.47,2268.50
464.90,2287.47
465.33,2306.59
465.77,2325.98
466.20,2345.80
466.63,2366.23
467.06,2387.44
467.49,2409.61
467.92,2432.90
468.35,2457.43
468.78,2483.35
469.22,2510.74
469.65,2539.67
470.08,2570.22
470.51,2602.40
470.94,2636.23
471.37,2671.69
471.80,2708.72
472.23,2747.24
472.66,2787.14
473.10,2828.25
473.53,2870.37
473.96,2913.30
474.39,2956.81
474.82,3000.67
475.25,3044.72
475.68,3088.81
476.11,3132.86
476.54,3176.84
476.97,3220.74
477.40,3264.59
477.83,3308.40
478.26,3352.19
478.69,3395.96
479.12,3439.71
479.55,3483.45
479.98,3527.21
480.41,3571.09
480.84,3615.21
481.27,3659.73
481.70,3704.85
482.13,3750.76
482.56,3797.60
482.99,3845.50
483.42,3894.52
483.85,3944.66
484.28,3995.86
484.71,4048.02
485.14,4100.95
485.57,4154.44
486.00,4208.23
486.43,4261.99
486.86,4315.43
487.29,4368.22
487.72,4420.09
488.15,4470.84
488.58,4520.36
489.01,4568.63
489.44,4615.68
489.87,4661.58
490.30,4706.39
490.72,4750.07
491.15,4792.55
491.58,4833.61
492.01,4873.03
492.44,4910.56
492.87,4946.03
493.30,4979.38
493.73,5010.72
494.16,5040.34
494.59,5068.63
495.01,5096.09
495.44,5123.23
495.87,5150.52
496.30,5178.34
496.73,5207.03
497.16,5236.83
497.59,5267.95
498.01,5300.62
498.44,5335.05
498.87,5371.42
499.30,5409.87
499.73,5450.40
500.16,5492.85
500.58,5536.87
501.01,5581.95
501.44,5627.46
501.87,5672.74
502.30,5717.22
502.72,5760.48
503.15,5802.31
503.58,5842.70
504.01,5881.75
504.44,5919.65
504.86,5956.47
505.29,5992.18
505.72,6026.52
506.15,6059.10
506.57,6089.40
507.00,6116.95
507.43,6141.43
507.86,6162.73
508.28,6181.04
508.71,6196.83
509.14,6210.73
509.57,6223.48
509.99,6235.74
510.42,6248.03
510.85,6260.67
511.27,6273.79
511.70,6287.34
512.13,6301.26
512.56,6315.51
512.98,6330.14
513.41,6345.35
513.84,6361.45
514.26,6378.76
514.69,6397.55
515.12,6417.96
515.54,6439.94
515.97,6463.26
516.40,6487.59
516.82,6512.57
517.25,6537.95
517.68,6563.70
518.10,6590.00
518.53,6617.28
518.95,6646.10
519.38,6676.99
519.81,6710.33
520.23,6746.13
520.66,6784.03
521.09,6823.22
521.51,6862.59
521.94,6900.84
522.36,6936.74
522.79,6969.31
523.22,6997.99
523.64,7022.72
524.07,7043.91
524.49,7062.33
524.92,7078.90
525.34,7094.49
525.77,7109.69
526.20,7124.70
526.62,7139.27
527.05,7152.80
527.47,7164.43
527.90,7173.31
528.32,7178.78
528.75,7180.56
529.17,7178.86
529.60,7174.38
530.02,7168.21
530.45,7161.63
530.87,7155.97
531.30,7152.31
531.72,7151.38
532.15,7153.44
532.57,7158.31
533.00,7165.49
533.42,7174.29
533.85,7184.03
534.27,7194.26
534.70,7204.82
535.12,7215.89
535.55,7227.94
535.97,7241.59
536.40,7257.39
536.82,7275.68
537.25,7296.40
537.67,7319.07
538.09,7342.75
538.52,7366.24
538.94,7388.26
539.37,7407.68
539.79,7423.76
540.22,7436.38
540.64,7446.01
541.06,7453.76
541.49,7461.16
541.91,7469.92
542.34,7481.63
542.76,7497.45
543.18,7517.87
543.61,7542.61
544.03,7570.61
544.46,7600.18
544.88,7629.23
545.30,7655.63
545.73,7677.56
546.15,7693.74
546.57,7703.67
547.00,7707.72
547.42,7706.96
547.84,7703.05
548.27,7697.87
548.69,7693.25
549.11,7690.61
549.54,7690.75
549.96,7693.72
550.38,7698.88
550.81,7705.00
551.23,7710.56
551.65,7714.03
552.07,7714.18
552.50,7710.37
552.92,7702.65
553.34,7691.80
553.77,7679.22
554.19,7666.67
554.61,7656.00
555.03,7648.85
555.46,7646.28
555.88,7648.67
556.30,7655.62
556.72,7666.02
557.15,7678.22
557.57,7690.42
557.99,7700.89
558.41,7708.38
558.84,7712.34
559.26,7713.02
559.68,7711.50
560.10,7709.53
560.52,7709.21
560.95,7712.72
561.37,7721.90
561.79,7738.01
562.21,7761.46
562.63,7791.78
563.06,7827.70
563.48,7867.35
563.90,7908.55
564.32,7949.20
564.74,7987.61
565.16,8022.78
565.58,8054.56
566.01,8083.66
566.43,8111.56
566.85,8140.18
567.27,8171.62
567.69,8207.70
568.11,8249.62
568.53,8297.68
568.96,8351.11
569.38,8408.06
569.80,8465.74
570.22,8520.77
570.64,8569.54
571.06,8608.66
571.48,8635.45
571.90,8648.24
572.32,8646.63
572.74,8631.59
573.16,8605.30
573.58,8570.93
574.01,8532.21
574.43,8493.01
574.85,8456.80
575.27,8426.27
575.69,8403.01
576.11,8387.32
576.53,8378.26
576.95,8373.80
577.37,8371.17
577.79,8367.28
578.21,8359.18
578.63,8344.50
579.05,8321.84
579.47,8290.95
579.89,8252.81
580.31,8209.51
580.73,8164.01
581.15,8119.73
581.57,8080.11
581.99,8048.17
582.41,8026.13
582.83,8015.12
583.25,8015.05
583.67,8024.63
584.09,8041.61
584.51,8063.04
584.93,8085.74
585.34,8106.69
585.76,8123.47
586.18,8134.60
586.60,8139.70
587.02,8139.62
587.44,8136.26
587.86,8132.38
588.28,8131.21
588.70,8136.09
589.12,8149.98
589.54,8175.11
589.95,8212.71
590.37,8262.82
590.79,8324.30
591.21,8394.95
591.63,8471.80
592.05,8551.41
592.47,8630.38
592.89,8705.67
593.30,8775.02
593.72,8837.21
594.14,8892.20
594.56,8941.12
594.98,8986.15
595.40,9030.21
595.81,9076.61
596.23,9128.59
596.65,9188.92
597.07,9259.50
597.49,9341.09
597.90,9433.10
598.32,9533.63
598.74,9639.58
599.16,9746.97
599.58,9851.27
599.99,9947.91
600.41,10032.71
600.83,10102.34
601.25,10154.62
601.66,10188.74
602.08,10205.38
602.50,10206.54
602.92,10195.38
603.33,10175.85
603.75,10152.26
604.17,10128.87
604.59,10109.42
605.00,10096.80
605.42,10092.75
605.84,10097.73
606.25,10110.89
606.67,10130.19
607.09,10152.67
607.51,10174.74
607.92,10192.62
608.34,10202.73
608.76,10202.11
609.17,10188.75
609.59,10161.81
610.01,10121.76
610.42,10070.32
610.84,10010.31
611.26,9945.37
611.67,9879.57
612.09,9817.03
612.51,9761.49
612.92,9715.98
613.34,9682.55
613.75,9662.07
614.17,9654.27
614.59,9657.74
615.00,9670.18
615.42,9688.67
615.83,9709.95
616.25,9730.79
616.67,9748.33
617.08,9760.33
617.50,9765.40
617.91,9763.11
618.33,9754.04
618.75,9739.66
619.16,9722.21
619.58,9704.39
619.99,9689.14
620.41,9679.25
620.82,9677.12
621.24,9684.44
621.65,9702.05
622.07,9729.85
622.48,9766.78
622.90,9810.95
623.31,9859.84
623.73,9910.58
624.14,9960.19
624.56,10005.94
624.97,10045.55
625.39,10077.48
625.80,10101.00
626.22,10116.28
626.63,10124.32
627.05,10126.87
627.46,10126.21
627.88,10124.93
628.29,10125.68
628.71,10130.95
629.12,10142.80
629.54,10162.75
629.95,10191.61
630.37,10229.46
630.78,10275.66
631.19,10328.90
631.61,10387.33
632.02,10448.71
632.44,10510.60
632.85,10570.53
633.26,10626.19
633.68,10675.63
634.09,10717.38
634.51,10750.56
634.92,10774.97
635.33,10791.08
635.75,10800.01
636.16,10803.39
636.57,10803.29
636.99,10802.00
637.40,10801.84
637.82,10805.01
638.23,10813.34
638.64,10828.23
639.06,10850.48
639.47,10880.31
639.88,10917.29
640.30,10960.49
640.71,11008.50
641.12,11059.57
641.53,11111.80
641.95,11163.18
642.36,11211.83
642.77,11256.03
643.19,11294.41
643.60,11325.97
644.01,11350.19
644.42,11367.06
644.84,11377.10
645.25,11381.35
645.66,11381.29
646.08,11378.81
646.49,11375.98
646.90,11375.00
647.31,11377.95
647.73,11386.65
648.14,11402.47
648.55,11426.21
648.96,11458.03
649.37,11497.37
649.79,11543.04
650.20,11593.25
650.61,11645.79
651.02,11698.20
651.43,11748.01
651.85,11792.89
652.26,11830.93
652.67,11860.75
653.08,11881.67
653.49,11893.73
653.90,11897.72
654.32,11895.08
654.73,11887.81
655.14,11878.31
655.55,11869.14
655.96,11862.82
656.37,11861.66
656.78,11867.52
657.20,11881.71
657.61,11904.86
658.02,11936.92
658.43,11977.15
658.84,12024.23
659.25,12076.37
659.66,12131.50
660.07,12187.41
660.48,12241.96
660.90,12293.22
661.31,12339.58
661.72,12379.86
662.13,12413.35
662.54,12439.83
662.95,12459.55
663.36,12473.16
663.77,12481.70
664.18,12486.47
664.59,12489.01
665.00,12490.96
665.41,12494.02
665.82,12499.79
666.23,12509.73
666.64,12525.03
667.05,12546.56
667.46,12574.78
667.87,12609.73
668.28,12650.97
668.69,12697.66
669.10,12748.54
669.51,12802.06
669.92,12856.43
670.33,12909.75
670.74,12960.09
671.15,13005.70
671.56,13045.01
671.97,13076.85
672.38,13100.49
672.79,13115.72
673.20,13122.88
673.61,13122.90
674.02,13117.22
674.42,13107.73
674.83,13096.66
675.24,13086.38
675.65,13079.28
676.06,13077.59
676.47,13083.16
676.88,13097.37
677.29,13121.00
677.70,13154.18
678.11,13196.39
678.51,13246.50
678.92,13302.86
679.33,13363.44
679.74,13425.96
680.15,13488.06
680.56,13547.44
680.97,13602.02
681.37,13650.02
681.78,13690.12
682.19,13721.47
682.60,13743.74
683.01,13757.18
683.42,13762.53
683.82,13761.03
684.23,13754.30
684.64,13744.26
685.05,13733.00
685.45,13722.61
685.86,13715.08
686.27,13712.11
686.68,13715.08
687.09,13724.88
687.49,13741.91
687.90,13766.09
688.31,13796.84
688.72,13833.21
689.12,13873.92
689.53,13917.47
689.94,13962.25
690.35,14006.60
690.75,14048.92
691.16,14087.74
691.57,14121.71
691.97,14149.71
692.38,14170.83
692.79,14184.41
693.20,14190.08
693.60,14187.77
694.01,14177.74
694.42,14160.59
694.82,14137.27
695.23,14109.08
695.64,14077.60
696.04,14044.67
696.45,14012.28
696.86,13982.47
697.26,13957.19
697.67,13938.23
698.07,13927.05
698.48,13924.70
698.89,13931.78
699.29,13948.37
699.70,13974.07
700.11,14008.00
700.51,14048.86
700.92,14095.03
701.32,14144.61
701.73,14195.56
702.14,14245.75
702.54,14293.12
702.95,14335.71
703.35,14371.86
703.76,14400.23
704.16,14419.92
704.57,14430.55
704.97,14432.26
705.38,14425.74
705.79,14412.16
706.19,14393.10
706.60,14370.45
707.00,14346.28
707.41,14322.68
707.81,14301.67
708.22,14285.08
708.62,14274.41
709.03,14270.81
709.43,14275.05
709.84,14287.45
710.24,14307.91
710.65,14335.96
711.05,14370.75
711.46,14411.13
711.86,14455.69
712.27,14502.82
712.67,14550.78
713.07,14597.77
713.48,14642.03
713.88,14681.86
714.29,14715.75
714.69,14742.43
715.10,14760.91
715.50,14770.57
715.90,14771.18
716.31,14762.92
716.71,14746.39
717.12,14722.61
717.52,14692.98
717.92,14659.24
718.33,14623.42
718.73,14587.74
719.14,14554.48
719.54,14525.88
719.94,14503.99
720.35,14490.53
720.75,14486.75
721.15,14493.35
721.56,14510.44
721.96,14537.51
722.36,14573.49
722.77,14616.87
723.17,14665.80
723.57,14718.22
723.98,14772.04
724.38,14825.22
724.78,14875.87
725.19,14922.35
725.59,14963.21
725.99,14997.29
726.39,15023.66
726.80,15041.64
727.20,15050.82
727.60,15051.05
728.00,15042.49
728.41,15025.66
728.81,15001.42
729.21,14971.03
729.61,14936.09
730.02,14898.50
730.42,14860.37
730.82,14823.88
731.22,14791.18
731.63,14764.26
732.03,14744.77
732.43,14734.00
732.83,14732.76
733.23,14741.36
733.64,14759.63
734.04,14786.96
734.44,14822.31
734.84,14864.34
735.24,14911.45
735.64,14961.90
736.05,15013.89
736.45,15065.63
736.85,15115.43
737.25,15161.73
737.65,15203.15
738.05,15238.45
738.45,15266.57
738.86,15286.59
739.26,15297.68
739.66,15299.13
740.06,15290.36
740.46,15270.99
740.86,15240.86
741.26,15200.19
741.66,15149.63
742.06,15090.38
742.46,15024.13
742.87,14953.12
743.27,14880.02
743.67,14807.74
744.07,14739.33
744.47,14677.68
744.87,14625.39
745.27,14584.59
745.67,14556.82
746.07,14542.98
746.47,14543.37
746.87,14557.72
747.27,14585.33
747.67,14625.15
748.07,14675.91
748.47,14736.18
748.87,14804.44
749.27,14879.12
749.67,14958.56
750.07,15041.04
750.47,15124.73
750.87,15207.70
751.27,15287.93
751.67,15363.38
752.07,15431.97
752.47,15491.75
752.87,15540.97
753.27,15578.14
753.66,15602.18
754.06,15612.49
754.46,15608.96
754.86,15592.06
755.26,15562.79
755.66,15522.63
756.06,15473.48
756.46,15417.50
756.86,15357.06
757.26,15294.51
757.65,15232.10
758.05,15171.84
758.45,15115.41
758.85,15064.05
759.25,15018.55
759.65,14979.23
760.05,14945.96
760.44,14918.17
760.84,14894.94
761.24,14875.10
761.64,14857.23
762.04,14839.83
762.44,14821.35
762.83,14800.26
763.23,14775.15
763.63,14744.73
764.03,14707.91
764.43,14663.79
764.82,14611.68
765.22,14551.11
765.62,14481.83
766.02,14403.81
766.41,14317.21
766.81,14222.43
767.21,14120.07
767.61,14010.97
768.00,13896.22
768.40,13777.13
768.80,13655.27
769.20,13532.42
769.59,13410.57
769.99,13291.81
770.39,13178.29
770.79,13072.11
771.18,12975.18
771.58,12889.13
771.98,12815.24
772.37,12754.32
772.77,12706.68
773.17,12672.14
773.56,12650.03
773.96,12639.24
774.36,12638.28
774.75,12645.38
775.15,12658.54
775.55,12675.67
775.94,12694.60
776.34,12713.20
776.73,12729.42
777.13,12741.38
777.53,12747.40
777.92,12746.05
778.32,12736.19
778.72,12717.01
779.11,12688.01
779.51,12649.04
779.90,12600.26
780.30,12542.14
780.69,12475.43
781.09,12401.13
781.49,12320.48
781.88,12234.90
782.28,12146.00
782.67,12055.47
783.07,11965.14
783.46,11876.82
783.86,11792.31
784.25,11713.33
784.65,11641.43
785.04,11577.92
785.44,11523.87
785.83,11480.00
786.23,11446.72
786.62,11424.07
787.02,11411.76
787.41,11409.20
787.81,11415.50
788.20,11429.54
788.60,11450.02
788.99,11475.47
789.39,11504.34
789.78,11535.00
790.18,11565.82
790.57,11595.15
790.97,11621.40
791.36,11643.06
791.75,11658.72
792.15,11667.11
792.54,11667.16
792.94,11658.00
793.33,11639.06
793.72,11610.03
794.12,11570.94
794.51,11522.17
794.91,11464.40
795.30,11398.66
795.69,11326.24
796.09,11248.67
796.48,11167.63
796.87,11084.91
797.27,11002.35
797.66,10921.71
798.05,10844.69
798.45,10772.82
798.84,10707.42
799.23,10649.59
799.63,10600.19
800.02,10559.79
800.41,10528.76
800.81,10507.19
801.20,10495.00
801.59,10491.93
801.99,10497.58
802.38,10511.44
802.77,10532.88
803.16,10561.16
803.56,10595.39
803.95,10634.54
804.34,10677.38
804.73,10722.49
805.13,10768.25
805.52,10812.87
805.91,10854.46
806.30,10891.12
806.69,10921.04
807.09,10942.59
807.48,10954.44
807.87,10955.63
808.26,10945.62
808.66,10924.27
809.05,10891.83
809.44,10848.90
809.83,10796.34
810.22,10735.22
810.61,10666.74
811.01,10592.22
811.40,10513.02
811.79,10430.54
812.18,10346.26
812.57,10261.66
812.96,10178.24
813.35,10097.49
813.75,10020.88
814.14,9949.74
814.53,9885.28
814.92,9828.51
815.31,9780.18
815.70,9740.78
816.09,9710.49
816.48,9689.24
816.87,9676.70
817.26,9672.33
817.65,9675.40
818.04,9685.08
818.44,9700.40
818.83,9720.33
819.22,9743.77
819.61,9769.58
820.00,9796.53
820.39,9823.41
820.78,9848.97
821.17,9871.98
821.56,9891.28
821.95,9905.77
822.34,9914.52
822.73,9916.72
823.12,9911.75
823.51,9899.18
823.90,9878.79
824.29,9850.54
824.68,9814.59
825.07,9771.25
825.46,9721.03
825.85,9664.55
826.24,9602.54
826.62,9535.83
827.01,9465.29
827.40,9391.83
827.79,9316.35
828.18,9239.78
828.57,9163.02
828.96,9087.00
829.35,9012.66
829.74,8940.97
830.13,8872.92
830.52,8809.53
830.90,8751.77
831.29,8700.56
831.68,8656.70
832.07,8620.81
832.46,8593.32
832.85,8574.43
833.24,8564.07
833.62,8561.98
834.01,8567.64
834.40,8580.38
834.79,8599.35
835.18,8623.57
835.57,8651.97
835.95,8683.39
836.34,8716.61
836.73,8750.38
837.12,8783.44
837.51,8814.54
837.89,8842.49
838.28,8866.18
838.67,8884.61
839.06,8896.93
839.44,8902.42
839.83,8900.55
840.22,8890.96
840.61,8873.48
840.99,8848.12
841.38,8815.05
841.77,8774.66
842.16,8727.50
842.54,8674.29
842.93,8615.91
843.32,8553.41
843.70,8487.92
844.09,8420.67
844.48,8352.89
844.86,8285.81
845.25,8220.60
845.64,8158.33
846.02,8099.93
846.41,8046.21
846.80,7997.83
847.18,7955.28
847.57,7918.91
847.96,7888.92
848.34,7865.37
848.73,7848.17
849.12,7837.08
849.50,7831.78
849.89,7831.83
850.27,7836.74
850.66,7845.97
851.05,7859.00
851.43,7875.29
851.82,7894.33
852.20,7915.63
852.59,7938.70
852.97,7963.03
853.36,7988.10
853.75,8013.32
854.13,8038.06
854.52,8061.65
854.90,8083.39
855.29,8102.59
855.67,8118.56
856.06,8130.68
856.44,8138.40
856.83,8141.26
857.21,8138.90
857.60,8131.13
857.98,8117.84
858.37,8099.13
858.75,8075.21
859.14,8046.47
859.52,8013.47
859.91,7976.88
860.29,7937.51
860.68,7896.23
861.06,7853.94
861.44,7811.54
861.83,7769.88
862.21,7729.70
862.60,7691.64
862.98,7656.21
863.37,7623.80
863.75,7594.69
864.13,7569.07
864.52,7547.04
864.90,7528.64
865.29,7513.87
865.67,7502.68
866.05,7494.98
866.44,7490.67
866.82,7489.57
867.20,7491.49
867.59,7496.18
867.97,7503.35
868.35,7512.65
868.74,7523.70
869.12,7536.07
869.50,7549.29
869.89,7562.87
870.27,7576.32
870.65,7589.13
871.04,7600.83
871.42,7610.99
871.80,7619.22
872.19,7625.25
872.57,7628.86
872.95,7629.95
873.33,7628.51
873.72,7624.60
874.10,7618.36
874.48,7609.97
874.86,7599.63
875.25,7587.54
875.63,7573.92
876.01,7558.96
876.39,7542.88
876.77,7525.89
877.16,7508.26
877.54,7490.30
877.92,7472.41
878.30,7455.03
878.68,7438.71
879.07,7424.07
879.45,7411.76
879.83,7402.52
880.21,7397.06
880.59,7396.10
880.97,7400.30
881.36,7410.26
881.74,7426.43
882.12,7449.15
882.50,7478.55
882.88,7514.63
883.26,7557.18
883.64,7605.87
884.02,7660.24
884.41,7719.74
884.79,7783.81
885.17,7851.88
885.55,7923.39
885.93,7997.81
886.31,8074.65
886.69,8153.42
887.07,8233.65
887.45,8314.81
887.83,8396.37
888.21,8477.73
888.59,8558.21
888.97,8637.11
889.35,8713.62
889.73,8786.89
890.11,8856.03
890.49,8920.09
890.87,8978.11
891.25,9029.14
891.63,9072.28
892.01,9106.69
892.39,9131.66
892.77,9146.60
893.15,9151.12
893.53,9144.98
893.91,9128.15
894.29,9100.77
894.67,9063.15
895.05,9015.76
895.43,8959.18
895.81,8894.09
896.19,8821.25
896.57,8741.46
896.95,8655.55
897.32,8564.38
897.70,8468.79
898.08,8369.60
898.46,8267.64
898.84,8163.70
899.22,8058.55
899.60,7952.96
899.98,7847.66
900.35,7743.34
900.73,7640.69
901.11,7540.31
901.49,7442.76
901.87,7348.50
902.25,7257.91
902.63,7171.24
903.00,7088.61
903.38,7010.06
903.76,6935.51
904.14,6864.79
904.52,6797.69
904.89,6733.96
905.27,6673.33
905.65,6615.58
906.03,6560.47
906.40,6507.81
906.78,6457.40
907.16,6409.06
907.54,6362.61
907.91,6317.83
908.29,6274.50
908.67,6232.36
909.05,6191.14
909.42,6150.57
909.80,6110.39
910.18,6070.38
910.55,6030.35
910.93,5990.16
911.31,5949.72
911.68,5909.00
912.06,5867.99
912.44,5826.68
912.82,5785.08
913.19,5743.18
913.57,5700.95
913.94,5658.36
914.32,5615.33
914.70,5571.83
915.07,5527.82
915.45,5483.29
915.83,5438.27
916.20,5392.84
916.58,5347.12
916.95,5301.28
917.33,5255.53
917.71,5210.11
918.08,5165.29
918.46,5121.35
918.83,5078.57
919.21,5037.25
919.58,4997.64
919.96,4960.00
920.34,4924.50
920.71,4891.32
921.09,4860.53
921.46,4832.19
921.84,4806.30
922.21,4782.82
922.59,4761.68
922.96,4742.80
923.34,4726.06
923.71,4711.35
924.09,4698.54
924.46,4687.47
924.84,4677.92
925.21,4669.67
925.59,4662.41
925.96,4655.81
926.34,4649.46
926.71,4642.96
927.08,4635.86
927.46,4627.75
927.83,4618.24
928.21,4607.01
928.58,4593.84
928.96,4578.57
929.33,4561.20
929.70,4541.78
930.08,4520.49
930.45,4497.56
930.83,4473.29
931.20,4447.97
931.57,4421.89
931.95,4395.30
932.32,4368.40
932.69,4341.31
933.07,4314.11
933.44,4286.82
933.81,4259.44
934.19,4231.92
934.56,4204.24
934.93,4176.36
935.31,4148.26
935.68,4119.96
936.05,4091.44
936.43,4062.73
936.80,4033.81
937.17,4004.68
937.54,3975.32
937.92,3945.69
938.29,3915.76
938.66,3885.50
939.03,3854.89
939.41,3823.98
939.78,3792.81
940.15,3761.51
940.52,3730.25
940.90,3699.24
941.27,3668.73
941.64,3638.97
942.01,3610.22
942.38,3582.72
942.76,3556.67
943.13,3532.20
943.50,3509.39
943.87,3488.23
944.24,3468.66
944.61,3450.55
944.99,3433.73
945.36,3417.98
945.73,3403.07
946.10,3388.77
946.47,3374.86
946.84,3361.12
947.21,3347.37
947.59,3333.43
947.96,3319.13
948.33,3304.33
948.70,3288.92
949.07,3272.80
949.44,3255.92
949.81,3238.29
950.18,3219.96
950.55,3201.05
950.92,3181.71
951.29,3162.15
951.66,3142.58
952.03,3123.20
952.41,3104.18
952.78,3085.61
953.15,3067.54
953.52,3049.94
953.89,3032.73
954.26,3015.75
954.63,2998.85
955.00,2981.85
955.37,2964.58
955.74,2946.90
956.11,2928.71
956.48,2909.92
956.84,2890.51
957.21,2870.51
957.58,2849.95
957.95,2828.93
958.32,2807.55
958.69,2785.90
959.06,2764.10
959.43,2742.24
959.80,2720.38
960.17,2698.57
960.54,2676.86
960.91,2655.26
961.28,2633.80
961.64,2612.51
962.01,2591.44
962.38,2570.66
962.75,2550.24
963.12,2530.25
963.49,2510.76
963.86,2491.82
964.22,2473.42
964.59,2455.55
964.96,2438.16
965.33,2421.14
965.70,2404.41
966.07,2387.87
966.43,2371.43
966.80,2355.04
967.17,2338.65
967.54,2322.26
967.91,2305.89
968.27,2289.57
968.64,2273.32
969.01,2257.18
969.38,2241.17
969.74,2225.28
970.11,2209.51
970.48,2193.86
970.85,2178.32
971.21,2162.90
971.58,2147.65
971.95,2132.62
972.31,2117.92
972.68,2103.65
973.05,2089.94
973.42,2076.87
973.78,2064.52
974.15,2052.90
974.52,2041.96
974.88,2031.57
975.25,2021.56
975.62,2011.69
975.98,2001.70
976.35,1991.32
976.72,1980.36
977.08,1968.63
977.45,1956.07
977.81,1942.67
978.18,1928.51
978.55,1913.75
978.91,1898.56
979.28,1883.13
979.64,1867.63
980.01,1852.17
980.38,1836.83
980.74,1821.62
981.11,1806.53
981.47,1791.51
981.84,1776.52
982.20,1761.55
982.57,1746.60
982.93,1731.73
983.30,1717.02
983.66,1702.58
984.03,1688.54
984.39,1675.00
984.76,1662.05
985.12,1649.71
985.49,1638.02
985.85,1626.91
986.22,1616.31
986.58,1606.12
986.95,1596.22
987.31,1586.45
987.68,1576.71
988.04,1566.88
988.41,1556.86
988.77,1546.63
989.13,1536.15
989.50,1525.47
989.86,1514.65
990.23,1503.77
990.59,1492.95
990.96,1482.29
991.32,1471.87
991.68,1461.76
992.05,1451.99
992.41,1442.54
992.77,1433.38
993.14,1424.41
993.50,1415.55
993.86,1406.66
994.23,1397.66
994.59,1388.44
994.95,1378.96
995.32,1369.17
995.68,1359.11
996.04,1348.81
996.41,1338.34
996.77,1327.81
997.13,1317.28
997.50,1306.84
997.86,1296.55
998.22,1286.43
998.58,1276.50
998.95,1266.74
999.31,1257.12
999.67,1247.62
1000.03,1238.19
1000.40,1228.82
1000.76,1219.48
1001.12,1210.17
1001.48,1200.91
1001.84,1191.69
1002.21,1182.56
1002.57,1173.55
1002.93,1164.68
1003.29,1156.00
1003.65,1147.55
1004.02,1139.34
1004.38,1131.42
1004.74,1123.79
1005.10,1116.46
1005.46,1109.43
1005.82,1102.68
1006.19,1096.22
1006.55,1090.01
1006.91,1084.05
1007.27,1078.31
1007.63,1072.79
1007.99,1067.47
1008.35,1062.34
1008.71,1057.38
1009.07,1052.56
1009.43,1047.87
1009.80,1043.24
1010.16,1038.64
1010.52,1033.97
1010.88,1029.15
1011.24,1024.08
1011.60,1018.67
1011.96,1012.82
1012.32,1006.46
1012.68,999.56
1013.04,992.15
1013.40,984.27
1013.76,976.03
1014.12,967.58
1014.48,959.08
1014.84,950.68
1015.20,942.55
1015.56,934.79
1015.92,927.50
1016.28,920.70
1016.64,914.38
1017.00,908.50
1017.36,902.98
1017.72,897.71
1018.07,892.59
1018.43,887.50
1018.79,882.35
1019.15,877.06
1019.51,871.58
1019.87,865.89
1020.23,860.01
1020.59,854.02
1020.95,847.99
1021.31,842.06
1021.66,836.36
1022.02,831.03
1022.38,826.19
1022.74,821.93
1023.10,818.29
1023.46,815.27
1023.81,812.82
1024.17,810.86
1024.53,809.26
1024.89,807.88
1025.25,806.65
1025.60,805.46
1025.96,804.24
1026.32,802.93
1026.68,801.49
1027.04,801.14
1027.39,800.22
1027.75,798.43
1028.11,795.83
1028.47,792.56
1028.82,833.74
1029.18,772.80
1029.54,760.10
1029.90,760.10
1030.25,760.10
