wavelength,counts
188.65,243.01
189.10,243.01
189.56,243.01
190.01,243.01
190.47,243.01
190.92,265.97
191.37,275.88
191.83,287.37
192.28,300.35
192.74,314.69
193.19,330.18
193.64,346.57
194.10,364.15
194.55,382.84
195.01,402.52
195.46,423.08
195.91,444.38
196.37,466.25
196.82,488.48
197.27,510.85
197.73,533.08
198.18,554.88
198.63,575.96
199.09,596.01
199.54,614.75
199.99,631.96
200.45,647.46
200.90,661.16
201.35,673.04
201.81,683.18
202.26,691.70
202.71,698.78
203.17,704.64
203.62,709.47
204.07,713.46
204.53,716.77
204.98,719.53
205.43,721.82
205.89,723.68
206.34,725.17
206.79,726.30
207.25,727.11
207.70,727.64
208.15,727.92
208.60,728.00
209.06,727.95
209.51,727.82
209.96,727.64
210.41,727.44
210.87,727.24
211.32,727.02
211.77,726.73
212.23,726.34
212.68,725.80
213.13,725.04
213.58,724.03
214.04,722.78
214.49,721.30
214.94,719.65
215.39,717.92
215.84,716.22
216.30,714.66
216.75,713.34
217.20,712.36
217.65,711.78
218.11,711.60
218.56,711.83
219.01,712.40
219.46,713.26
219.91,714.30
220.37,715.44
220.82,716.56
221.27,717.56
221.72,718.35
222.17,718.84
222.63,718.98
223.08,718.75
223.53,718.14
223.98,717.22
224.43,716.08
224.88,714.84
225.34,713.64
225.79,712.62
226.24,711.89
226.69,711.52
227.14,711.54
227.59,711.91
228.04,712.56
228.50,713.35
228.95,714.15
229.40,714.85
229.85,715.34
230.30,715.57
230.75,715.55
231.20,715.33
231.66,715.01
232.11,714.73
232.56,714.62
233.01,714.80
233.46,715.35
233.91,716.33
234.36,717.72
234.81,719.47
235.26,721.46
235.71,723.59
236.17,725.70
236.62,727.68
237.07,729.44
237.52,730.89
237.97,732.02
238.42,732.82
238.87,733.32
239.32,733.56
239.77,733.58
240.22,733.43
240.67,733.13
241.12,732.71
241.57,732.19
242.02,731.59
242.47,730.93
242.92,730.23
243.37,729.55
243.82,728.90
244.27,728.35
244.72,727.92
245.18,727.64
245.63,727.51
246.08,727.52
246.53,727.66
246.98,727.86
247.43,728.08
247.88,728.27
248.33,728.37
248.78,728.36
249.23,728.22
249.68,727.94
250.12,727.53
250.57,727.03
251.02,726.47
251.47,725.91
251.92,725.39
252.37,724.97
252.82,724.69
253.27,724.57
253.72,724.64
254.17,724.89
254.62,725.30
255.07,725.83
255.52,726.43
255.97,727.05
256.42,727.62
256.87,728.09
257.32,728.42
257.77,728.58
258.22,728.57
258.66,728.40
259.11,728.09
259.56,727.69
260.01,727.23
260.46,726.77
260.91,726.35
261.36,725.99
261.81,725.72
262.26,725.56
262.71,725.51
263.15,725.55
263.60,725.68
264.05,725.86
264.50,726.09
264.95,726.34
265.40,726.59
265.85,726.83
266.30,727.06
266.74,727.28
267.19,727.49
267.64,727.69
268.09,727.90
268.54,728.12
268.99,728.35
269.43,728.62
269.88,728.91
270.33,729.23
270.78,729.56
271.23,729.87
271.68,730.14
272.12,730.34
272.57,730.44
273.02,730.42
273.47,730.27
273.92,730.01
274.36,729.65
274.81,729.25
275.26,728.84
275.71,728.47
276.16,728.17
276.60,727.98
277.05,727.93
277.50,728.01
277.95,728.24
278.39,728.62
278.84,729.16
279.29,729.83
279.74,730.65
280.19,731.57
280.63,732.58
281.08,733.64
281.53,734.69
281.98,735.67
282.42,736.56
282.87,737.30
283.32,737.88
283.76,738.31
284.21,738.62
284.66,738.85
285.11,739.07
285.55,739.34
286.00,739.72
286.45,740.26
286.89,740.96
287.34,741.84
287.79,742.85
288.23,743.94
288.68,745.04
289.13,746.06
289.58,746.91
290.02,747.54
290.47,747.88
290.92,747.90
291.36,747.62
291.81,747.04
292.26,746.23
292.70,745.24
293.15,744.17
293.60,743.07
294.04,742.03
294.49,741.10
294.93,740.31
295.38,739.71
295.83,739.29
296.27,739.05
296.72,738.99
297.17,739.09
297.61,739.33
298.06,739.69
298.50,740.17
298.95,740.77
299.40,741.49
299.84,742.36
300.29,743.41
300.73,744.66
301.18,746.16
301.63,747.93
302.07,749.97
302.52,752.26
302.96,754.76
303.41,757.40
303.85,760.09
304.30,762.74
304.75,765.23
305.19,767.47
305.64,769.37
306.08,770.87
306.53,771.91
306.97,772.46
307.42,772.48
307.86,771.95
308.31,770.85
308.75,769.18
309.20,766.96
309.65,764.24
310.09,761.11
310.54,757.68
310.98,754.13
311.43,750.63
311.87,747.37
312.32,744.53
312.76,742.24
313.21,740.59
313.65,739.58
314.10,739.16
314.54,739.21
314.99,739.58
315.43,740.08
315.87,740.54
316.32,740.81
316.76,740.78
317.21,740.39
317.65,739.65
318.10,738.61
318.54,737.35
318.99,735.97
319.43,734.60
319.88,733.33
320.32,732.27
320.76,731.48
321.21,731.01
321.65,730.88
322.10,731.11
322.54,731.68
322.99,732.59
323.43,733.82
323.87,735.33
324.32,737.09
324.76,739.05
325.21,741.14
325.65,743.30
326.09,745.45
326.54,747.53
326.98,749.48
327.42,751.30
327.87,752.96
328.31,754.51
328.76,755.97
329.20,757.38
329.64,758.77
330.09,760.12
330.53,761.41
330.97,762.55
331.42,763.45
331.86,763.98
332.30,764.03
332.75,763.54
333.19,762.46
333.63,760.82
334.08,758.70
334.52,756.23
334.96,753.56
335.41,750.88
335.85,748.36
336.29,746.12
336.74,744.27
337.18,742.85
337.62,741.83
338.06,741.15
338.51,740.69
338.95,740.33
339.39,739.93
339.84,739.37
340.28,738.60
340.72,737.58
341.16,736.38
341.61,735.09
342.05,733.86
342.49,732.89
342.93,732.34
343.38,732.38
343.82,733.11
344.26,734.59
344.70,736.78
345.15,739.58
345.59,742.82
346.03,746.31
346.47,749.83
346.92,753.20
347.36,756.24
347.80,758.84
348.24,760.95
348.68,762.57
349.13,763.75
349.57,764.56
350.01,765.10
350.45,765.48
350.89,765.78
351.34,766.04
351.78,766.31
352.22,766.57
352.66,766.79
353.10,766.92
353.54,766.90
353.99,766.69
354.43,766.24
354.87,765.54
355.31,764.62
355.75,763.50
356.19,762.25
356.63,760.93
357.08,759.59
357.52,758.26
357.96,756.98
358.40,755.72
358.84,754.47
359.28,753.21
359.72,751.92
360.16,750.60
360.60,749.27
361.05,747.98
361.49,746.80
361.93,745.83
362.37,745.15
362.81,744.84
363.25,744.96
363.69,745.51
364.13,746.48
364.57,747.81
365.01,749.42
365.45,751.22
365.89,753.08
366.33,754.93
366.78,756.69
367.22,758.32
367.66,759.81
368.10,761.20
368.54,762.53
368.98,763.87
369.42,765.28
369.86,766.80
370.30,768.47
370.74,770.29
371.18,772.21
371.62,774.19
372.06,776.16
372.50,778.05
372.94,779.80
373.38,781.39
373.82,782.82
374.26,784.13
374.70,785.38
375.14,786.65
375.58,788.01
376.02,789.53
376.46,791.23
376.90,793.10
377.34,795.11
377.78,797.16
378.21,799.16
378.65,800.99
379.09,802.57
379.53,803.83
379.97,804.75
380.41,805.36
380.85,805.72
381.29,805.91
381.73,806.04
382.17,806.21
382.61,806.50
383.05,806.98
383.49,807.65
383.93,808.52
384.36,809.55
384.80,810.71
385.24,811.94
385.68,813.23
386.12,814.57
386.56,816.00
387.00,817.56
387.44,819.34
387.87,821.40
388.31,823.84
388.75,826.72
389.19,830.09
389.63,833.98
390.07,838.36
390.51,843.22
390.94,848.50
391.38,854.10
391.82,859.92
392.26,865.84
392.70,871.71
393.14,877.40
393.57,882.75
394.01,887.64
394.45,891.98
394.89,895.71
395.33,898.83
395.76,901.38
396.20,903.45
396.64,905.14
397.08,906.59
397.52,907.90
397.95,909.17
398.39,910.46
398.83,911.78
399.27,913.14
399.70,914.52
400.14,915.92
400.58,917.34
401.02,918.81
401.45,920.39
401.89,922.17
402.33,924.23
402.77,926.67
403.20,929.55
403.64,932.91
404.08,936.75
404.52,941.05
404.95,945.76
405.39,950.81
405.83,956.13
406.26,961.68
406.70,967.40
407.14,973.26
407.58,979.25
408.01,985.36
408.45,991.60
408.89,997.96
409.32,1004.49
409.76,1011.21
410.20,1018.16
410.63,1025.39
411.07,1032.93
411.51,1040.80
411.94,1048.98
412.38,1057.43
412.82,1066.07
413.25,1074.78
413.69,1083.44
414.12,1091.94
414.56,1100.19
415.00,1108.11
415.43,1115.68
415.87,1122.93
416.31,1129.92
416.74,1136.72
417.18,1143.47
417.61,1150.26
418.05,1157.21
418.49,1164.41
418.92,1171.92
419.36,1179.79
419.79,1188.01
420.23,1196.54
420.67,1205.31
421.10,1214.23
421.54,1223.20
421.97,1232.13
422.41,1240.95
422.84,1249.65
423.28,1258.23
423.71,1266.78
424.15,1275.37
424.59,1284.11
425.02,1293.07
425.46,1302.31
425.89,1311.80
426.33,1321.51
426.76,1331.31
427.20,1341.10
427.63,1350.75
428.07,1360.17
428.50,1369.34
428.94,1378.25
429.37,1386.98
429.81,1395.61
430.24,1404.25
430.68,1412.99
431.11,1421.93
431.55,1431.09
431.98,1440.49
432.42,1450.14
432.85,1460.02
433.28,1470.14
433.72,1480.49
434.15,1491.09
434.59,1501.97
435.02,1513.16
435.46,1524.64
435.89,1536.38
436.33,1548.32
436.76,1560.35
437.19,1572.33
437.63,1584.11
438.06,1595.53
438.50,1606.48
438.93,1616.84
439.37,1626.55
439.80,1635.61
440.23,1644.06
440.67,1652.00
441.10,1659.54
441.53,1666.86
441.97,1674.13
442.40,1681.53
442.84,1689.20
443.27,1697.26
443.70,1705.77
444.14,1714.70
444.57,1723.98
445.00,1733.47
445.44,1742.99
445.87,1752.36
446.30,1761.40
446.74,1770.01
447.17,1778.14
447.60,1785.82
448.04,1793.17
448.47,1800.36
448.90,1807.56
449.34,1814.94
449.77,1822.62
450.20,1830.63
450.64,1838.96
451.07,1847.50
451.50,1856.14
451.93,1864.77
452.37,1873.31
452.80,1881.80
453.23,1890.34
453.67,1899.14
454.10,1908.45
454.53,1918.56
454.96,1929.72
455.40,1942.09
455.83,1955.75
456.26,1970.62
456.69,1986.51
457.13,2003.17
457.56,2020.28
457.99,2037.54
458.42,2054.68
458.86,2071.54
459.29,2088.04
459.72,2104.19
460.15,2120.06
460.58,2135.75
461.02,2151.35
461.45,2166.91
461.88,2182.45
462.31,2197.93
462.74,2213.31
463.18,2228.55
463.61,2243.66
464.04,2258.70
464.47,2273.82
464.90,2289.23
465.33,2305.17
465.77,2321.88
466.20,2339.55
466.63,2358.25
467.06,2377.97
467.49,2398.56
467.92,2419.82
468.35,2441.50
468.78,2463.41
469.22,2485.44
469.65,2507.66
470.08,2530.29
470.51,2553.73
470.94,2578.48
471.37,2605.06
471.80,2633.93
472.23,2665.38
472.66,2699.47
473.10,2735.99
473.53,2774.48
473.96,2814.28
474.39,2854.64
474.82,2894.85
475.25,2934.37
475.68,2972.92
476.11,3010.54
476.54,3047.60
476.97,3084.76
477.40,3122.80
477.83,3162.53
478.26,3204.61
478.69,3249.41
479.12,3296.91
479.55,3346.69
479.98,3397.95
480.41,3449.63
480.84,3500.59
481.27,3549.77
481.70,3596.38
482.13,3640.03
482.56,3680.80
482.99,3719.22
483.42,3756.19
483.85,3792.79
484.28,3830.12
484.71,3869.09
485.14,3910.25
485.57,3953.70
486.00,3999.08
486.43,4045.63
486.86,4092.34
487.29,4138.12
487.72,4182.03
488.15,4223.45
488.58,4262.19
489.01,4298.54
489.44,4333.23
489.87,4367.30
490.30,4401.92
490.72,4438.19
491.15,4476.94
491.58,4518.54
492.01,4562.87
492.44,4609.26
492.87,4656.59
493.30,4703.46
493.73,4748.40
494.16,4790.07
494.59,4827.50
495.01,4860.25
495.44,4888.47
495.87,4912.93
496.30,4934.90
496.73,4955.97
497.16,4977.83
497.59,5002.03
498.01,5029.72
498.44,5061.49
498.87,5097.30
499.30,5136.42
499.73,5177.59
500.16,5219.17
500.58,5259.43
501.01,5296.74
501.44,5329.89
501.87,5358.24
502.30,5381.83
502.72,5401.39
503.15,5418.21
503.58,5433.99
504.01,5450.57
504.44,5469.61
504.86,5492.44
505.29,5519.75
505.72,5551.56
506.15,5587.18
506.57,5625.32
507.00,5664.28
507.43,5702.19
507.86,5737.30
508.28,5768.24
508.71,5794.19
509.14,5815.05
509.57,5831.39
509.99,5844.42
510.42,5855.76
510.85,5867.26
511.27,5880.68
511.70,5897.46
512.13,5918.55
512.56,5944.25
512.98,5974.17
513.41,6007.32
513.84,6042.25
514.26,6077.26
514.69,6110.64
515.12,6140.91
515.54,6167.04
515.97,6188.59
516.40,6205.80
516.82,6219.54
517.25,6231.20
517.68,6242.54
518.10,6255.39
518.53,6271.47
518.95,6292.10
519.38,6318.00
519.81,6349.25
520.23,6385.14
520.66,6424.34
521.09,6464.97
521.51,6504.89
521.94,6541.89
522.36,6574.01
522.79,6599.73
523.22,6618.26
523.64,6629.54
524.07,6634.36
524.49,6634.22
524.92,6631.18
525.34,6627.67
525.77,6626.13
526.20,6628.77
526.62,6637.30
527.05,6652.70
527.47,6675.11
527.90,6703.82
528.32,6737.35
528.75,6773.62
529.17,6810.20
529.60,6844.62
530.02,6874.63
530.45,6898.50
530.87,6915.19
531.30,6924.46
531.72,6926.92
532.15,6923.93
532.57,6917.43
533.00,6909.71
533.42,6903.15
533.85,6899.92
534.27,6901.74
534.70,6909.69
535.12,6924.06
535.55,6944.33
535.97,6969.27
536.40,6997.03
536.82,7025.39
537.25,7052.01
537.67,7074.73
538.09,7091.79
538.52,7102.03
538.94,7105.06
539.37,7101.30
539.79,7091.88
540.22,7078.60
540.64,7063.64
541.06,7049.38
541.49,7038.09
541.91,7031.69
542.34,7031.56
542.76,7038.34
543.18,7051.90
543.61,7071.37
544.03,7095.19
544.46,7121.35
544.88,7147.54
545.30,7171.45
545.73,7191.01
546.15,7204.59
546.57,7211.16
547.00,7210.44
547.42,7202.92
547.84,7189.78
548.27,7172.85
548.69,7154.37
549.11,7136.78
549.54,7122.49
549.96,7113.64
550.38,7111.84
550.81,7118.03
551.23,7132.33
551.65,7154.05
552.07,7181.70
552.50,7213.15
552.92,7245.83
553.34,7276.97
553.77,7303.89
554.19,7324.28
554.61,7336.44
555.03,7339.43
555.46,7333.25
555.88,7318.78
556.30,7297.76
556.72,7272.60
557.15,7246.15
557.57,7221.43
557.99,7201.30
558.41,7188.23
558.84,7184.02
559.26,7189.65
559.68,7205.16
560.10,7229.68
560.52,7261.53
560.95,7298.34
561.37,7337.36
561.79,7375.62
562.21,7410.32
562.63,7438.98
563.06,7459.74
563.48,7471.48
563.90,7473.92
564.32,7467.67
564.74,7454.12
565.16,7435.36
565.58,7413.99
566.01,7392.88
566.43,7374.93
566.85,7362.83
567.27,7358.81
567.69,7364.46
568.11,7380.55
568.53,7406.97
568.96,7442.72
569.38,7485.98
569.80,7534.22
570.22,7584.43
570.64,7633.35
571.06,7677.75
571.48,7714.68
571.90,7741.73
572.32,7757.21
572.74,7760.33
573.16,7751.20
573.58,7730.86
574.01,7701.18
574.43,7664.65
574.85,7624.21
575.27,7582.97
575.69,7543.94
576.11,7509.79
576.53,7482.65
576.95,7463.95
577.37,7454.34
577.79,7453.67
578.21,7461.09
578.63,7475.13
579.05,7493.88
579.47,7515.17
579.89,7536.74
580.31,7556.43
580.73,7572.31
581.15,7582.84
581.57,7586.89
581.99,7583.84
582.41,7573.63
582.83,7556.71
583.25,7534.10
583.67,7507.25
584.09,7478.05
584.51,7448.68
584.93,7421.48
585.34,7398.78
585.76,7382.74
586.18,7375.18
586.60,7377.40
587.02,7390.07
587.44,7413.15
587.86,7445.88
588.28,7486.84
588.70,7534.04
589.12,7585.06
589.54,7637.29
589.95,7688.07
590.37,7734.95
590.79,7775.87
591.21,7809.28
591.63,7834.33
592.05,7850.87
592.47,7859.51
592.89,7861.57
593.30,7858.96
593.72,7854.08
594.14,7849.63
594.56,7848.37
594.98,7852.96
595.40,7865.67
595.81,7888.27
596.23,7921.84
596.65,7966.69
597.07,8022.30
597.49,8087.41
597.90,8160.07
598.32,8237.82
598.74,8317.85
599.16,8397.23
599.58,8473.10
599.99,8542.84
600.41,8604.26
600.83,8655.66
601.25,8695.98
601.66,8724.73
602.08,8742.09
602.50,8748.80
602.92,8746.14
603.33,8735.83
603.75,8719.95
604.17,8700.77
604.59,8680.71
605.00,8662.11
605.42,8647.13
605.84,8637.64
606.25,8635.03
606.67,8640.17
607.09,8653.31
607.51,8674.10
607.92,8701.56
608.34,8734.22
608.76,8770.16
609.17,8807.21
609.59,8843.06
610.01,8875.50
610.42,8902.51
610.84,8922.47
611.26,8934.20
611.67,8937.11
612.09,8931.15
612.51,8916.88
612.92,8895.35
613.34,8868.08
613.75,8836.89
614.17,8803.82
614.59,8771.01
615.00,8740.53
615.42,8714.28
615.83,8693.93
616.25,8680.76
616.67,8675.71
617.08,8679.25
617.50,8691.47
617.91,8712.01
618.33,8740.16
618.75,8774.84
619.16,8814.71
619.58,8858.19
619.99,8903.52
620.41,8948.86
620.82,8992.38
621.24,9032.35
621.65,9067.23
622.07,9095.79
622.48,9117.18
622.90,9131.04
623.31,9137.47
623.73,9137.11
624.14,9131.03
624.56,9120.67
624.97,9107.74
625.39,9094.08
625.80,9081.54
626.22,9071.82
626.63,9066.43
627.05,9066.56
627.46,9073.09
627.88,9086.52
628.29,9107.04
628.71,9134.50
629.12,9168.44
629.54,9208.13
629.95,9252.58
630.37,9300.59
630.78,9350.76
631.19,9401.59
631.61,9451.48
632.02,9498.89
632.44,9542.36
632.85,9580.67
633.26,9612.86
633.68,9638.38
634.09,9657.06
634.51,9669.16
634.92,9675.35
635.33,9676.65
635.75,9674.40
636.16,9670.11
636.57,9665.44
636.99,9662.04
637.40,9661.53
637.82,9665.35
638.23,9674.71
638.64,9690.53
639.06,9713.36
639.47,9743.39
639.88,9780.37
640.30,9823.69
640.71,9872.37
641.12,9925.13
641.53,9980.48
641.95,10036.78
642.36,10092.37
642.77,10145.64
643.19,10195.16
643.60,10239.67
644.01,10278.21
644.42,10310.13
644.84,10335.12
645.25,10353.20
645.66,10364.73
646.08,10370.41
646.49,10371.18
646.90,10368.25
647.31,10362.99
647.73,10356.86
648.14,10351.34
648.55,10347.87
648.96,10347.74
649.37,10352.06
649.79,10361.70
650.20,10377.29
650.61,10399.18
651.02,10427.45
651.43,10461.95
651.85,10502.26
652.26,10547.75
652.67,10597.56
653.08,10650.64
653.49,10705.77
653.90,10761.60
654.32,10816.71
654.73,10869.67
655.14,10919.16
655.55,10963.97
655.96,11003.19
656.37,11036.16
656.78,11062.60
657.20,11082.55
657.61,11096.39
658.02,11104.80
658.43,11108.70
658.84,11109.19
659.25,11107.49
659.66,11104.89
660.07,11102.67
660.48,11102.07
660.90,11104.25
661.31,11110.22
661.72,11120.82
662.13,11136.66
662.54,11158.11
662.95,11185.27
663.36,11217.96
663.77,11255.73
664.18,11297.87
664.59,11343.50
665.00,11391.56
665.41,11440.90
665.82,11490.36
666.23,11538.76
666.64,11585.02
667.05,11628.16
667.46,11667.33
667.87,11701.85
668.28,11731.21
668.69,11755.10
669.10,11773.40
669.51,11786.22
669.92,11793.88
670.33,11796.91
670.74,11796.05
671.15,11792.21
671.56,11786.46
671.97,11779.93
672.38,11773.82
672.79,11769.24
673.20,11767.19
673.61,11768.51
674.02,11773.81
674.42,11783.44
674.83,11797.53
675.24,11815.95
675.65,11838.41
676.06,11864.46
676.47,11893.55
676.88,11925.07
677.29,11958.37
677.70,11992.78
678.11,12027.60
678.51,12062.14
678.92,12095.72
679.33,12127.62
679.74,12157.18
680.15,12183.79
680.56,12206.90
680.97,12226.11
681.37,12241.17
681.78,12251.99
682.19,12258.73
682.60,12261.73
683.01,12261.51
683.42,12258.77
683.82,12254.33
684.23,12249.07
684.64,12243.91
685.05,12239.70
685.45,12237.23
685.86,12237.18
686.27,12240.05
686.68,12246.23
687.09,12255.90
687.49,12269.13
687.90,12285.83
688.31,12305.77
688.72,12328.63
689.12,12353.98
689.53,12381.31
689.94,12410.08
690.35,12439.66
690.75,12469.47
691.16,12498.92
691.57,12527.44
691.97,12554.58
692.38,12579.93
692.79,12603.22
693.20,12624.22
693.60,12642.84
694.01,12659.02
694.42,12672.74
694.82,12684.04
695.23,12692.93
695.64,12699.44
696.04,12703.60
696.45,12705.47
696.86,12705.17
697.26,12702.87
697.67,12698.87
698.07,12693.57
698.48,12687.52
698.89,12681.35
699.29,12675.81
699.70,12671.68
700.11,12669.75
700.51,12670.73
700.92,12675.21
701.32,12683.60
701.73,12696.13
702.14,12712.75
702.54,12733.21
702.95,12757.01
703.35,12783.50
703.76,12811.87
704.16,12841.26
704.57,12870.79
704.97,12899.63
705.38,12927.06
705.79,12952.49
706.19,12975.52
706.60,12995.85
707.00,13013.38
707.41,13028.09
707.81,13040.07
708.22,13049.46
708.62,13056.44
709.03,13061.18
709.43,13063.85
709.84,13064.65
710.24,13063.75
710.65,13061.37
711.05,13057.74
711.46,13053.17
711.86,13048.01
712.27,13042.69
712.67,13037.67
713.07,13033.48
713.48,13030.63
713.88,13029.59
714.29,13030.79
714.69,13034.54
715.10,13041.04
715.50,13050.33
715.90,13062.31
716.31,13076.76
716.71,13093.30
717.12,13111.49
717.52,13130.81
717.92,13150.70
718.33,13170.63
718.73,13190.08
719.14,13208.57
719.54,13225.68
719.94,13241.06
720.35,13254.38
720.75,13265.34
721.15,13273.69
721.56,13279.14
721.96,13281.46
722.36,13280.41
722.77,13275.84
723.17,13267.66
723.57,13255.95
723.98,13240.92
724.38,13222.98
724.78,13202.70
725.19,13180.81
725.59,13158.16
725.99,13135.61
726.39,13114.01
726.80,13094.11
727.20,13076.52
727.60,13061.66
728.00,13049.76
728.41,13040.86
728.81,13034.88
729.21,13031.61
729.61,13030.79
730.02,13032.15
730.42,13035.39
730.82,13040.26
731.22,13046.50
731.63,13053.86
732.03,13062.07
732.43,13070.85
732.83,13079.84
733.23,13088.66
733.64,13096.88
734.04,13104.04
734.44,13109.68
734.84,13113.40
735.24,13114.83
735.64,13113.72
736.05,13109.91
736.45,13103.40
736.85,13094.28
737.25,13082.78
737.65,13069.21
738.05,13053.92
738.45,13037.30
738.86,13019.69
739.26,13001.38
739.66,12982.58
740.06,12963.41
740.46,12943.93
740.86,12924.15
741.26,12904.05
741.66,12883.63
742.06,12862.95
742.46,12842.10
742.87,12821.28
743.27,12800.71
743.67,12780.69
744.07,12761.57
744.47,12743.71
744.87,12727.49
745.27,12713.29
745.67,12701.49
746.07,12692.47
746.47,12686.57
746.87,12684.10
747.27,12685.25
747.67,12690.15
748.07,12698.77
748.47,12710.90
748.87,12726.23
749.27,12744.25
749.67,12764.39
750.07,12785.96
750.47,12808.29
750.87,12830.72
751.27,12852.63
751.67,12873.50
752.07,12892.88
752.47,12910.39
752.87,12925.68
753.27,12938.42
753.66,12948.26
754.06,12954.83
754.46,12957.71
754.86,12956.45
755.26,12950.60
755.66,12939.72
756.06,12923.48
756.46,12901.63
756.86,12874.11
757.26,12841.07
757.65,12802.86
758.05,12760.08
758.45,12713.55
758.85,12664.26
759.25,12613.32
759.65,12561.88
760.05,12511.06
760.44,12461.86
760.84,12415.11
761.24,12371.39
761.64,12331.02
762.04,12294.03
762.44,12260.24
762.83,12229.23
763.23,12200.46
763.63,12173.30
764.03,12147.16
764.43,12121.47
764.82,12095.80
765.22,12069.85
765.62,12043.45
766.02,12016.57
766.41,11989.21
766.81,11961.42
767.21,11933.19
767.61,11904.42
768.00,11874.88
768.40,11844.22
768.80,11811.97
769.20,11777.62
769.59,11740.65
769.99,11700.59
770.39,11657.13
770.79,11610.13
771.18,11559.65
771.58,11505.97
771.98,11449.54
772.37,11390.95
772.77,11330.88
773.17,11270.07
773.56,11209.24
773.96,11149.08
774.36,11090.22
774.75,11033.22
775.15,10978.59
775.55,10926.73
775.94,10877.99
776.34,10832.64
776.73,10790.84
777.13,10752.69
777.53,10718.19
777.92,10687.24
778.32,10659.63
778.72,10635.08
779.11,10613.25
779.51,10593.72
779.90,10576.08
780.30,10559.90
780.69,10544.78
781.09,10530.37
781.49,10516.37
781.88,10502.53
782.28,10488.69
782.67,10474.69
783.07,10460.44
783.46,10445.85
783.86,10430.87
784.25,10415.42
784.65,10399.44
785.04,10382.84
785.44,10365.51
785.83,10347.33
786.23,10328.11
786.62,10307.64
787.02,10285.68
787.41,10261.95
787.81,10236.16
788.20,10208.01
788.60,10177.27
788.99,10143.74
789.39,10107.32
789.78,10068.01
790.18,10025.93
790.57,9981.32
790.97,9934.53
791.36,9886.02
791.75,9836.33
792.15,9786.08
792.54,9735.88
792.94,9686.41
793.33,9638.28
793.72,9592.11
794.12,9548.44
794.51,9507.75
794.91,9470.44
795.30,9436.83
795.69,9407.13
796.09,9381.49
796.48,9359.91
796.87,9342.30
797.27,9328.46
797.66,9318.08
798.05,9310.76
798.45,9306.00
798.84,9303.26
799.23,9301.94
799.63,9301.48
800.02,9301.32
800.41,9300.99
800.81,9300.05
801.20,9298.16
801.59,9295.03
801.99,9290.42
802.38,9284.10
802.77,9275.85
803.16,9265.43
803.56,9252.58
803.95,9237.06
804.34,9218.62
804.73,9197.07
805.13,9172.27
805.52,9144.21
805.91,9112.96
806.30,9078.71
806.69,9041.75
807.09,9002.45
807.48,8961.22
807.87,8918.52
808.26,8874.78
808.66,8830.44
809.05,8785.89
809.44,8741.50
809.83,8697.59
810.22,8654.50
810.61,8612.50
811.01,8571.91
811.40,8533.02
811.79,8496.12
812.18,8461.53
812.57,8429.52
812.96,8400.36
813.35,8374.24
813.75,8351.31
814.14,8331.60
814.53,8315.08
814.92,8301.63
815.31,8291.05
815.70,8283.07
816.09,8277.40
816.48,8273.73
816.87,8271.75
817.26,8271.19
817.65,8271.78
818.04,8273.29
818.44,8275.48
818.83,8278.13
819.22,8280.97
819.61,8283.75
820.00,8286.11
820.39,8287.70
820.78,8288.11
821.17,8286.89
821.56,8283.61
821.95,8277.84
822.34,8269.22
822.73,8257.43
823.12,8242.29
823.51,8223.70
823.90,8201.70
824.29,8176.43
824.68,8148.09
825.07,8116.99
825.46,8083.44
825.85,8047.77
826.24,8010.29
826.62,7971.30
827.01,7931.07
827.40,7889.87
827.79,7847.99
828.18,7805.72
828.57,7763.43
828.96,7721.54
829.35,7680.51
829.74,7640.83
830.13,7602.96
830.52,7567.34
830.90,7534.32
831.29,7504.15
831.68,7476.97
832.07,7452.83
832.46,7431.72
832.85,7413.60
833.24,7398.44
833.62,7386.26
834.01,7377.14
834.40,7371.22
834.79,7368.63
835.18,7369.51
835.57,7373.90
835.95,7381.71
836.34,7392.69
836.73,7406.40
837.12,7422.23
837.51,7439.44
837.89,7457.19
838.28,7474.61
838.67,7490.90
839.06,7505.32
839.44,7517.30
839.83,7526.44
840.22,7532.48
840.61,7535.35
840.99,7535.10
841.38,7531.90
841.77,7525.96
842.16,7517.54
842.54,7506.90
842.93,7494.25
843.32,7479.81
843.70,7463.73
844.09,7446.14
844.48,7427.15
844.86,7406.85
845.25,7385.34
845.64,7362.74
846.02,7339.18
846.41,7314.77
846.80,7289.68
847.18,7264.06
847.57,7238.05
847.96,7211.82
848.34,7185.53
848.73,7159.37
849.12,7133.53
849.50,7108.23
849.89,7083.74
850.27,7060.32
850.66,7038.25
851.05,7017.81
851.43,6999.26
851.82,6982.84
852.20,6968.72
852.59,6957.04
852.97,6947.87
853.36,6941.22
853.75,6937.08
854.13,6935.36
854.52,6935.95
854.90,6938.67
855.29,6943.33
855.67,6949.68
856.06,6957.41
856.44,6966.17
856.83,6975.61
857.21,6985.29
857.60,6994.81
857.98,7003.76
858.37,7011.79
858.75,7018.58
859.14,7023.95
859.52,7027.79
859.91,7030.11
860.29,7031.03
860.68,7030.76
861.06,7029.56
861.44,7027.71
861.83,7025.43
862.21,7022.91
862.60,7020.24
862.98,7017.37
863.37,7014.19
863.75,7010.47
864.13,7005.97
864.52,7000.41
864.90,6993.54
865.29,6985.20
865.67,6975.29
866.05,6963.81
866.44,6950.87
866.82,6936.62
867.20,6921.29
867.59,6905.08
867.97,6888.19
868.35,6870.78
868.74,6852.93
869.12,6834.67
869.50,6815.99
869.89,6796.85
870.27,6777.24
870.65,6757.19
871.04,6736.80
871.42,6716.28
871.80,6695.87
872.19,6675.91
872.57,6656.74
872.95,6638.67
873.33,6621.98
873.72,6606.88
874.10,6593.47
874.48,6581.81
874.86,6571.88
875.25,6563.65
875.63,6557.08
876.01,6552.21
876.39,6549.09
876.77,6547.88
877.16,6548.76
877.54,6552.00
877.92,6557.83
878.30,6566.53
878.68,6578.31
879.07,6593.33
879.45,6611.68
879.83,6633.34
880.21,6658.25
880.59,6686.25
880.97,6717.13
881.36,6750.64
881.74,6786.53
882.12,6824.54
882.50,6864.44
882.88,6906.01
883.26,6949.09
883.64,6993.49
884.02,7039.06
884.41,7085.64
884.79,7133.02
885.17,7180.96
885.55,7229.20
885.93,7277.42
886.31,7325.26
886.69,7372.36
887.07,7418.33
887.45,7462.82
887.83,7505.49
888.21,7546.03
888.59,7584.20
888.97,7619.77
889.35,7652.61
889.73,7682.57
890.11,7709.56
890.49,7733.47
890.87,7754.18
891.25,7771.51
891.63,7785.22
892.01,7795.01
892.39,7800.49
892.77,7801.25
893.15,7796.83
893.53,7786.81
893.91,7770.83
894.29,7748.67
894.67,7720.26
895.05,7685.71
895.43,7645.34
895.81,7599.67
896.19,7549.36
896.57,7495.21
896.95,7438.07
897.32,7378.80
897.70,7318.21
898.08,7257.02
898.46,7195.83
898.84,7135.09
899.22,7075.13
899.60,7016.15
899.98,6958.24
900.35,6901.42
900.73,6845.66
901.11,6790.89
901.49,6737.02
901.87,6683.99
902.25,6631.71
902.63,6580.11
903.00,6529.09
903.38,6478.58
903.76,6428.46
904.14,6378.60
904.52,6328.88
904.89,6279.16
905.27,6229.35
905.65,6179.38
906.03,6129.27
906.40,6079.11
906.78,6029.06
907.16,5979.41
907.54,5930.47
907.91,5882.61
908.29,5836.22
908.67,5791.62
909.05,5749.04
909.42,5708.63
909.80,5670.35
910.18,5634.03
910.55,5599.35
910.93,5565.89
911.31,5533.14
911.68,5500.59
912.06,5467.75
912.44,5434.21
912.82,5399.71
913.19,5364.09
913.57,5327.37
913.94,5289.66
914.32,5251.19
914.70,5212.21
915.07,5173.05
915.45,5133.97
915.83,5095.24
916.20,5057.07
916.58,5019.63
916.95,4983.05
917.33,4947.40
917.71,4912.75
918.08,4879.12
918.46,4846.53
918.83,4814.97
919.21,4784.43
919.58,4754.90
919.96,4726.37
920.34,4698.83
920.71,4672.31
921.09,4646.86
921.46,4622.54
921.84,4599.45
922.21,4577.68
922.59,4557.31
922.96,4538.39
923.34,4520.94
923.71,4504.90
924.09,4490.17
924.46,4476.60
924.84,4463.98
925.21,4452.12
925.59,4440.78
925.96,4429.78
926.34,4418.91
926.71,4408.01
927.08,4396.90
927.46,4385.42
927.83,4373.40
928.21,4360.65
928.58,4346.99
928.96,4332.24
929.33,4316.28
929.70,4299.02
930.08,4280.43
930.45,4260.57
930.83,4239.57
931.20,4217.64
931.57,4195.00
931.95,4171.92
932.32,4148.64
932.69,4125.38
933.07,4102.29
933.44,4079.47
933.81,4056.96
934.19,4034.73
934.56,4012.71
934.93,3990.82
935.31,3968.95
935.68,3947.01
936.05,3924.91
936.43,3902.55
936.80,3879.88
937.17,3856.82
937.54,3833.30
937.92,3809.26
938.29,3784.63
938.66,3759.37
939.03,3733.46
939.41,3706.90
939.78,3679.74
940.15,3652.11
940.52,3624.15
940.90,3596.10
941.27,3568.20
941.64,3540.73
942.01,3513.95
942.38,3488.10
942.76,3463.34
943.13,3439.79
943.50,3417.47
943.87,3396.33
944.24,3376.27
944.61,3357.14
944.99,3338.79
945.36,3321.05
945.73,3303.82
946.10,3287.02
946.47,3270.61
946.84,3254.56
947.21,3238.88
947.59,3223.56
947.96,3208.58
948.33,3193.90
948.70,3179.47
949.07,3165.20
949.44,3151.04
949.81,3136.92
950.18,3122.82
950.55,3108.70
950.92,3094.59
951.29,3080.50
951.66,3066.45
952.03,3052.47
952.41,3038.57
952.78,3024.72
953.15,3010.90
953.52,2997.10
953.89,2983.27
954.26,2969.39
954.63,2955.44
955.00,2941.41
955.37,2927.28
955.74,2913.04
956.11,2898.66
956.48,2884.08
956.84,2869.23
957.21,2854.05
957.58,2838.44
957.95,2822.35
958.32,2805.72
958.69,2788.53
959.06,2770.80
959.43,2752.60
959.80,2733.99
960.17,2715.11
960.54,2696.06
960.91,2676.97
961.28,2657.94
961.64,2639.04
962.01,2620.34
962.38,2601.82
962.75,2583.45
963.12,2565.16
963.49,2546.86
963.86,2528.43
964.22,2509.78
964.59,2490.81
964.96,2471.50
965.33,2451.84
965.70,2431.89
966.07,2411.76
966.43,2391.62
966.80,2371.64
967.17,2352.00
967.54,2332.88
967.91,2314.41
968.27,2296.68
968.64,2279.73
969.01,2263.54
969.38,2248.04
969.74,2233.13
970.11,2218.69
970.48,2204.61
970.85,2190.75
971.21,2177.04
971.58,2163.39
971.95,2149.76
972.31,2136.12
972.68,2122.49
973.05,2108.85
973.42,2095.23
973.78,2081.62
974.15,2068.05
974.52,2054.49
974.88,2040.94
975.25,2027.38
975.62,2013.83
975.98,2000.31
976.35,1986.87
976.72,1973.61
977.08,1960.65
977.45,1948.14
977.81,1936.23
978.18,1925.05
978.55,1914.67
978.91,1905.12
979.28,1896.34
979.64,1888.18
980.01,1880.44
980.38,1872.87
980.74,1865.21
981.11,1857.21
981.47,1848.69
981.84,1839.53
982.20,1829.68
982.57,1819.19
982.93,1808.16
983.30,1796.75
983.66,1785.12
984.03,1773.45
984.39,1761.88
984.76,1750.55
985.12,1739.51
985.49,1728.82
985.85,1718.48
986.22,1708.48
986.58,1698.76
986.95,1689.28
987.31,1679.97
987.68,1670.76
988.04,1661.58
988.41,1652.37
988.77,1643.04
989.13,1633.51
989.50,1623.72
989.86,1613.60
990.23,1603.06
990.59,1592.08
990.96,1580.64
991.32,1568.74
991.68,1556.46
992.05,1543.90
992.41,1531.24
992.77,1518.67
993.14,1506.43
993.50,1494.76
993.86,1483.85
994.23,1473.86
994.59,1464.85
994.95,1456.80
995.32,1449.59
995.68,1443.03
996.04,1436.85
996.41,1430.79
996.77,1424.56
997.13,1417.95
997.50,1410.80
997.86,1403.05
998.22,1394.70
998.58,1385.81
998.95,1376.51
999.31,1366.93
999.67,1357.20
1000.03,1347.41
1000.40,1337.65
1000.76,1327.94
1001.12,1318.31
1001.48,1308.77
1001.84,1299.33
1002.21,1290.01
1002.57,1280.86
1002.93,1271.95
1003.29,1263.35
1003.65,1255.14
1004.02,1247.38
1004.38,1240.11
1004.74,1233.35
1005.10,1227.05
1005.46,1221.17
1005.82,1215.61
1006.19,1210.29
1006.55,1205.10
1006.91,1199.94
1007.27,1194.76
1007.63,1189.51
1007.99,1184.17
1008.35,1178.75
1008.71,1173.30
1009.07,1167.85
1009.43,1162.45
1009.80,1157.15
1010.16,1151.96
1010.52,1146.91
1010.88,1141.97
1011.24,1137.12
1011.60,1132.30
1011.96,1127.47
1012.32,1122.58
1012.68,1117.58
1013.04,1112.47
1013.40,1107.24
1013.76,1101.92
1014.12,1096.55
1014.48,1091.19
1014.84,1085.89
1015.20,1080.72
1015.56,1075.72
1015.92,1070.90
1016.28,1066.28
1016.64,1061.83
1017.00,1057.54
1017.36,1053.35
1017.72,1049.21
1018.07,1045.06
1018.43,1040.84
1018.79,1036.48
1019.15,1031.93
1019.51,1027.14
1019.87,1022.04
1020.23,1016.62
1020.59,1010.85
1020.95,1004.72
1021.31,998.27
1021.66,991.53
1022.02,984.57
1022.38,977.47
1022.74,970.30
1023.10,963.18
1023.46,956.20
1023.81,949.46
1024.17,943.02
1024.53,936.97
1024.89,931.35
1025.25,926.21
1025.60,921.53
1025.96,917.29
1026.32,913.44
1026.68,909.93
1027.04,906.96
1027.39,903.47
1027.75,900.25
1028.11,897.36
1028.47,894.81
1028.82,902.26
1029.18,864.20
1029.54,892.12
1029.90,892.12
1030.25,892.12
