wavelength,counts
188.65,94.73
189.10,94.73
189.56,94.73
190.01,94.73
190.47,94.73
190.92,115.26
191.37,124.35
191.83,135.05
192.28,147.34
192.74,161.09
193.19,176.16
193.64,192.28
194.10,209.67
194.55,228.18
195.01,247.65
195.46,267.89
195.91,288.73
196.37,309.96
196.82,331.40
197.27,352.84
197.73,374.11
198.18,394.99
198.63,415.29
199.09,434.81
199.54,453.33
199.99,470.68
200.45,486.68
200.90,501.21
201.35,514.20
201.81,525.63
202.26,535.53
202.71,544.00
203.17,551.16
203.62,557.18
204.07,562.19
204.53,566.36
204.98,569.79
205.43,572.56
205.89,574.73
206.34,576.30
206.79,577.27
207.25,577.63
207.70,577.36
208.15,576.46
208.60,574.96
209.06,572.92
209.51,570.43
209.96,567.60
210.41,564.56
210.87,561.47
211.32,558.45
211.77,555.64
212.23,553.14
212.68,551.01
213.13,549.28
213.58,547.95
214.04,546.98
214.49,546.32
214.94,545.90
215.39,545.68
215.84,545.60
216.30,545.66
216.75,545.84
217.20,546.17
217.65,546.69
218.11,547.40
218.56,548.32
219.01,549.43
219.46,550.69
219.91,552.01
220.37,553.32
220.82,554.50
221.27,555.45
221.72,556.11
222.17,556.43
222.63,556.37
223.08,555.97
223.53,555.26
223.98,554.31
224.43,553.20
224.88,552.03
225.34,550.89
225.79,549.88
226.24,549.13
226.69,548.74
227.14,548.81
227.59,549.43
228.04,550.64
228.50,552.46
228.95,554.86
229.40,557.72
229.85,560.90
230.30,564.21
230.75,567.42
231.20,570.31
231.66,572.66
232.11,574.30
232.56,575.10
233.01,574.99
233.46,573.97
233.91,572.13
234.36,569.58
234.81,566.50
235.26,563.10
235.71,559.63
236.17,556.29
236.62,553.31
237.07,550.83
237.52,548.98
237.97,547.80
238.42,547.29
238.87,547.36
239.32,547.91
239.77,548.78
240.22,549.82
240.67,550.88
241.12,551.82
241.57,552.54
242.02,553.00
242.47,553.16
242.92,553.04
243.37,552.67
243.82,552.10
244.27,551.38
244.72,550.57
245.18,549.70
245.63,548.83
246.08,547.97
246.53,547.17
246.98,546.48
247.43,545.92
247.88,545.54
248.33,545.40
248.78,545.52
249.23,545.93
249.68,546.65
250.12,547.66
250.57,548.95
251.02,550.49
251.47,552.23
251.92,554.14
252.37,556.19
252.82,558.34
253.27,560.56
253.72,562.83
254.17,565.12
254.62,567.39
255.07,569.61
255.52,571.70
255.97,573.62
256.42,575.29
256.87,576.63
257.32,577.59
257.77,578.10
258.22,578.15
258.66,577.72
259.11,576.84
259.56,575.57
260.01,574.02
260.46,572.29
260.91,570.54
261.36,568.88
261.81,567.45
262.26,566.32
262.71,565.55
263.15,565.13
263.60,564.99
264.05,565.04
264.50,565.15
264.95,565.18
265.40,565.00
265.85,564.52
266.30,563.68
266.74,562.51
267.19,561.06
267.64,559.46
268.09,557.86
268.54,556.45
268.99,555.38
269.43,554.82
269.88,554.87
270.33,555.57
270.78,556.92
271.23,558.85
271.68,561.24
272.12,563.96
272.57,566.85
273.02,569.77
273.47,572.57
273.92,575.15
274.36,577.42
274.81,579.32
275.26,580.82
275.71,581.89
276.16,582.53
276.60,582.77
277.05,582.63
277.50,582.19
277.95,581.51
278.39,580.70
278.84,579.85
279.29,579.09
279.74,578.48
280.19,578.08
280.63,577.93
281.08,577.98
281.53,578.20
281.98,578.51
282.42,578.82
282.87,579.04
283.32,579.12
283.76,579.01
284.21,578.71
284.66,578.21
285.11,577.55
285.55,576.77
286.00,575.91
286.45,574.98
286.89,574.02
287.34,573.03
287.79,572.00
288.23,570.92
288.68,569.80
289.13,568.65
289.58,567.47
290.02,566.30
290.47,565.20
290.92,564.20
291.36,563.37
291.81,562.77
292.26,562.45
292.70,562.46
293.15,562.83
293.60,563.60
294.04,564.77
294.49,566.32
294.93,568.19
295.38,570.29
295.83,572.50
296.27,574.66
296.72,576.59
297.17,578.09
297.61,579.02
298.06,579.26
298.50,578.73
298.95,577.45
299.40,575.50
299.84,573.02
300.29,570.19
300.73,567.23
301.18,564.34
301.63,561.72
302.07,559.51
302.52,557.84
302.96,556.74
303.41,556.24
303.85,556.30
304.30,556.85
304.75,557.81
305.19,559.09
305.64,560.59
306.08,562.25
306.53,564.00
306.97,565.82
307.42,567.71
307.86,569.66
308.31,571.71
308.75,573.88
309.20,576.18
309.65,578.60
310.09,581.10
310.54,583.63
310.98,586.11
311.43,588.45
311.87,590.56
312.32,592.34
312.76,593.72
313.21,594.65
313.65,595.11
314.10,595.10
314.54,594.63
314.99,593.75
315.43,592.52
315.87,591.00
316.32,589.27
316.76,587.42
317.21,585.54
317.65,583.72
318.10,582.04
318.54,580.60
318.99,579.46
319.43,578.65
319.88,578.21
320.32,578.12
320.76,578.33
321.21,578.78
321.65,579.38
322.10,580.06
322.54,580.74
322.99,581.36
323.43,581.89
323.87,582.32
324.32,582.65
324.76,582.90
325.21,583.08
325.65,583.22
326.09,583.31
326.54,583.34
326.98,583.31
327.42,583.20
327.87,582.99
328.31,582.68
328.76,582.27
329.20,581.78
329.64,581.23
330.09,580.65
330.53,580.07
330.97,579.52
331.42,579.03
331.86,578.61
332.30,578.26
332.75,578.00
333.19,577.81
333.63,577.71
334.08,577.70
334.52,577.79
334.96,578.00
335.41,578.36
335.85,578.90
336.29,579.62
336.74,580.54
337.18,581.64
337.62,582.87
338.06,584.19
338.51,585.50
338.95,586.74
339.39,587.82
339.84,588.68
340.28,589.28
340.72,589.61
341.16,589.69
341.61,589.57
342.05,589.33
342.49,589.03
342.93,588.75
343.38,588.57
343.82,588.55
344.26,588.72
344.70,589.13
345.15,589.77
345.59,590.66
346.03,591.76
346.47,593.03
346.92,594.40
347.36,595.79
347.80,597.09
348.24,598.17
348.68,598.91
349.13,599.18
349.57,598.91
350.01,598.02
350.45,596.53
350.89,594.48
351.34,591.99
351.78,589.19
352.22,586.28
352.66,583.44
353.10,580.84
353.54,578.65
353.99,576.97
354.43,575.87
354.87,575.36
355.31,575.43
355.75,576.00
356.19,577.01
356.63,578.34
357.08,579.89
357.52,581.56
357.96,583.24
358.40,584.82
358.84,586.23
359.28,587.40
359.72,588.28
360.16,588.85
360.60,589.11
361.05,589.11
361.49,588.91
361.93,588.58
362.37,588.23
362.81,587.93
363.25,587.77
363.69,587.82
364.13,588.09
364.57,588.62
365.01,589.39
365.45,590.37
365.89,591.54
366.33,592.85
366.78,594.26
367.22,595.72
367.66,597.17
368.10,598.58
368.54,599.87
368.98,601.00
369.42,601.93
369.86,602.60
370.30,602.99
370.74,603.09
371.18,602.91
371.62,602.47
372.06,601.83
372.50,601.08
372.94,600.30
373.38,599.59
373.82,599.07
374.26,598.82
374.70,598.92
375.14,599.43
375.58,600.37
376.02,601.72
376.46,603.47
376.90,605.55
377.34,607.90
377.78,610.47
378.21,613.20
378.65,616.07
379.09,619.06
379.53,622.15
379.97,625.36
380.41,628.66
380.85,632.03
381.29,635.44
381.73,638.80
382.17,642.04
382.61,645.06
383.05,647.76
383.49,650.07
383.93,651.93
384.36,653.33
384.80,654.28
385.24,654.85
385.68,655.13
386.12,655.22
386.56,655.24
387.00,655.29
387.44,655.48
387.87,655.85
388.31,656.45
388.75,657.26
389.19,658.26
389.63,659.39
390.07,660.56
390.51,661.69
390.94,662.70
391.38,663.53
391.82,664.15
392.26,664.56
392.70,664.80
393.14,664.93
393.57,665.04
394.01,665.26
394.45,665.68
394.89,666.41
395.33,667.53
395.76,669.11
396.20,671.18
396.64,673.74
397.08,676.79
397.52,680.29
397.95,684.21
398.39,688.49
398.83,693.09
399.27,697.95
399.70,703.02
400.14,708.25
400.58,713.61
401.02,719.06
401.45,724.56
401.89,730.09
402.33,735.64
402.77,741.21
403.20,746.79
403.64,752.38
404.08,758.00
404.52,763.67
404.95,769.38
405.39,775.15
405.83,780.97
406.26,786.83
406.70,792.71
407.14,798.60
407.58,804.49
408.01,810.36
408.45,816.23
408.89,822.14
409.32,828.14
409.76,834.28
410.20,840.66
410.63,847.34
411.07,854.40
411.51,861.91
411.94,869.90
412.38,878.38
412.82,887.36
413.25,896.80
413.69,906.63
414.12,916.78
414.56,927.15
415.00,937.63
415.43,948.08
415.87,958.39
416.31,968.42
416.74,978.07
417.18,987.25
417.61,995.89
418.05,1004.00
418.49,1011.59
418.92,1018.74
419.36,1025.57
419.79,1032.23
420.23,1038.86
420.67,1045.63
421.10,1052.68
421.54,1060.13
421.97,1068.07
422.41,1076.52
422.84,1085.50
423.28,1094.97
423.71,1104.88
424.15,1115.15
424.59,1125.70
425.02,1136.44
425.46,1147.29
425.89,1158.19
426.33,1169.07
426.76,1179.90
427.20,1190.66
427.63,1201.33
428.07,1211.93
428.50,1222.47
428.94,1232.97
429.37,1243.43
429.81,1253.89
430.24,1264.35
430.68,1274.83
431.11,1285.36
431.55,1295.96
431.98,1306.68
432.42,1317.54
432.85,1328.60
433.28,1339.88
433.72,1351.39
434.15,1363.10
434.59,1374.97
435.02,1386.89
435.46,1398.76
435.89,1410.44
436.33,1421.78
436.76,1432.68
437.19,1443.04
437.63,1452.82
438.06,1462.04
438.50,1470.78
438.93,1479.14
439.37,1487.30
439.80,1495.43
440.23,1503.70
440.67,1512.24
441.10,1521.15
441.53,1530.47
441.97,1540.19
442.40,1550.22
442.84,1560.46
443.27,1570.75
443.70,1580.97
444.14,1590.98
444.57,1600.69
445.00,1610.04
445.44,1619.03
445.87,1627.70
446.30,1636.16
446.74,1644.55
447.17,1653.04
447.60,1661.83
448.04,1671.10
448.47,1681.04
448.90,1691.79
449.34,1703.40
449.77,1715.88
450.20,1729.15
450.64,1743.03
451.07,1757.31
451.50,1771.71
451.93,1785.99
452.37,1799.91
452.80,1813.31
453.23,1826.13
453.67,1838.41
454.10,1850.26
454.53,1861.89
454.96,1873.55
455.40,1885.47
455.83,1897.91
456.26,1911.03
456.69,1924.95
457.13,1939.71
457.56,1955.30
457.99,1971.63
458.42,1988.60
458.86,2006.09
459.29,2024.00
459.72,2042.22
460.15,2060.73
460.58,2079.50
461.02,2098.58
461.45,2118.02
461.88,2137.90
462.31,2158.29
462.74,2179.24
463.18,2200.76
463.61,2222.84
464.04,2245.40
464.47,2268.33
464.90,2291.51
465.33,2314.79
465.77,2338.07
466.20,2361.25
466.63,2384.32
467.06,2407.28
467.49,2430.25
467.92,2453.35
468.35,2476.78
468.78,2500.76
469.22,2525.49
469.65,2551.19
470.08,2578.05
470.51,2606.25
470.94,2635.92
471.37,2667.18
471.80,2700.12
472.23,2734.80
472.66,2771.24
473.10,2809.43
473.53,2849.33
473.96,2890.85
474.39,2933.88
474.82,2978.29
475.25,3023.90
475.68,3070.56
476.11,3118.08
476.54,3166.29
476.97,3214.99
477.40,3263.98
477.83,3313.05
478.26,3362.00
478.69,3410.62
479.12,3458.75
479.55,3506.29
479.98,3553.19
480.41,3599.48
480.84,3645.25
481.27,3690.68
481.70,3735.93
482.13,3781.24
482.56,3826.82
482.99,3872.91
483.42,3919.74
483.85,3967.55
484.28,4016.56
484.71,4066.95
485.14,4118.85
485.57,4172.26
486.00,4227.04
486.43,4282.87
486.86,4339.31
487.29,4395.78
487.72,4451.67
488.15,4506.39
488.58,4559.45
489.01,4610.52
489.44,4659.45
489.87,4706.23
490.30,4750.97
490.72,4793.85
491.15,4835.03
491.58,4874.64
492.01,4912.77
492.44,4949.49
492.87,4984.84
493.30,5018.94
493.73,5051.91
494.16,5083.98
494.59,5115.38
495.01,5146.36
495.44,5177.11
495.87,5207.77
496.30,5238.44
496.73,5269.14
497.16,5299.90
497.59,5330.81
498.01,5361.97
498.44,5393.58
498.87,5425.85
499.30,5459.00
499.73,5493.16
500.16,5528.34
500.58,5564.40
501.01,5601.09
501.44,5638.07
501.87,5674.98
502.30,5711.55
502.72,5747.60
503.15,5783.10
503.58,5818.10
504.01,5852.71
504.44,5886.95
504.86,5920.74
505.29,5953.83
505.72,5985.78
506.15,6016.10
506.57,6044.29
507.00,6069.97
507.43,6093.03
507.86,6113.63
508.28,6132.23
508.71,6149.50
509.14,6166.18
509.57,6182.96
509.99,6200.33
510.42,6218.48
510.85,6237.33
511.27,6256.53
511.70,6275.61
512.13,6294.14
512.56,6311.83
512.98,6328.64
513.41,6344.82
513.84,6360.86
514.26,6377.35
514.69,6394.90
515.12,6413.96
515.54,6434.75
515.97,6457.23
516.40,6481.15
516.82,6506.11
517.25,6531.75
517.68,6557.81
518.10,6584.27
518.53,6611.35
518.95,6639.46
519.38,6669.08
519.81,6700.64
520.23,6734.30
520.66,6769.90
521.09,6806.90
521.51,6844.42
521.94,6881.35
522.36,6916.55
522.79,6949.04
523.22,6978.15
523.64,7003.68
524.07,7025.82
524.49,7045.18
524.92,7062.54
525.34,7078.72
525.77,7094.35
526.20,7109.71
526.62,7124.71
527.05,7138.89
527.47,7151.54
527.90,7161.88
528.32,7169.28
528.75,7173.43
529.17,7174.44
529.60,7172.88
530.02,7169.69
530.45,7166.00
530.87,7162.95
531.30,7161.47
531.72,7162.12
532.15,7165.01
532.57,7169.85
533.00,7175.99
533.42,7182.69
533.85,7189.25
534.27,7195.24
534.70,7200.62
535.12,7205.79
535.55,7211.49
535.97,7218.69
536.40,7228.41
536.82,7241.44
537.25,7258.22
537.67,7278.70
538.09,7302.36
538.52,7328.26
538.94,7355.20
539.37,7381.98
539.79,7407.59
540.22,7431.37
540.64,7453.15
541.06,7473.24
541.49,7492.31
541.91,7511.26
542.34,7530.97
542.76,7552.07
543.18,7574.80
543.61,7598.89
544.03,7623.57
544.46,7647.68
544.88,7669.86
545.30,7688.77
545.73,7703.42
546.15,7713.27
546.57,7718.44
547.00,7719.71
547.42,7718.39
547.84,7716.11
548.27,7714.59
548.69,7715.29
549.11,7719.15
549.54,7726.39
549.96,7736.47
550.38,7748.13
550.81,7759.59
551.23,7768.84
551.65,7774.00
552.07,7773.64
552.50,7767.08
552.92,7754.45
553.34,7736.80
553.77,7715.89
554.19,7693.92
554.61,7673.24
555.03,7655.94
555.46,7643.56
555.88,7636.87
556.30,7635.79
556.72,7639.44
557.15,7646.36
557.57,7654.81
557.99,7663.08
558.41,7669.85
558.84,7674.44
559.26,7676.95
559.68,7678.29
560.10,7680.00
560.52,7684.02
560.95,7692.38
561.37,7706.80
561.79,7728.43
562.21,7757.60
562.63,7793.75
563.06,7835.47
563.48,7880.72
563.90,7927.14
564.32,7972.38
564.74,8014.49
565.16,8052.25
565.58,8085.30
566.01,8114.24
566.43,8140.53
566.85,8166.20
567.27,8193.54
567.69,8224.67
568.11,8261.20
568.53,8303.83
568.96,8352.26
569.38,8405.05
569.80,8459.80
570.22,8513.40
570.64,8562.43
571.06,8603.55
571.48,8633.99
571.90,8651.87
572.32,8656.48
572.74,8648.34
573.16,8629.15
573.58,8601.58
574.01,8568.89
574.43,8534.54
574.85,8501.73
575.27,8473.06
575.69,8450.18
576.11,8433.64
576.53,8422.90
576.95,8416.41
577.37,8411.93
577.79,8406.83
578.21,8398.51
578.63,8384.82
579.05,8364.35
579.47,8336.66
579.89,8302.40
580.31,8263.22
580.73,8221.59
581.15,8180.43
581.57,8142.77
581.99,8111.30
582.41,8088.01
582.83,8073.96
583.25,8069.10
583.67,8072.31
584.09,8081.60
584.51,8094.37
584.93,8107.83
585.34,8119.44
585.76,8127.20
586.18,8130.05
586.60,8127.95
587.02,8121.99
587.44,8114.17
587.86,8107.20
588.28,8104.15
588.70,8108.00
589.12,8121.30
589.54,8145.81
589.95,8182.30
590.37,8230.41
590.79,8288.72
591.21,8354.93
591.63,8426.11
592.05,8499.12
592.47,8570.92
592.89,8638.99
593.30,8701.61
593.72,8758.05
594.14,8808.70
594.56,8854.98
594.98,8899.15
595.40,8944.10
595.81,8992.91
596.23,9048.52
596.65,9113.32
597.07,9188.83
597.49,9275.48
597.90,9372.47
598.32,9477.79
598.74,9588.36
599.16,9700.31
599.58,9809.29
599.99,9910.90
600.41,10001.10
600.83,10076.62
601.25,10135.21
601.66,10175.94
602.08,10199.20
602.50,10206.69
602.92,10201.24
603.33,10186.43
603.75,10166.30
604.17,10144.85
604.59,10125.66
605.00,10111.52
605.42,10104.18
605.84,10104.21
606.25,10110.98
606.67,10122.80
607.09,10137.14
607.51,10150.98
607.92,10161.12
608.34,10164.59
608.76,10158.99
609.17,10142.74
609.59,10115.32
610.01,10077.27
610.42,10030.22
610.84,9976.72
611.26,9919.98
611.67,9863.56
612.09,9811.02
612.51,9765.55
612.92,9729.66
613.34,9704.95
613.75,9691.95
614.17,9690.09
614.59,9697.80
615.00,9712.69
615.42,9731.82
615.83,9752.02
616.25,9770.23
616.67,9783.82
617.08,9790.85
617.50,9790.29
617.91,9782.11
618.33,9767.28
618.75,9747.66
619.16,9725.78
619.58,9704.59
619.99,9687.12
620.41,9676.13
620.82,9673.85
621.24,9681.69
621.65,9700.13
622.07,9728.66
622.48,9765.86
622.90,9809.55
623.31,9857.02
623.73,9905.32
624.14,9951.59
624.56,9993.26
624.97,10028.36
625.39,10055.63
625.80,10074.66
626.22,10085.85
626.63,10090.41
627.05,10090.18
627.46,10087.47
627.88,10084.87
628.29,10084.97
628.71,10090.18
629.12,10102.47
629.54,10123.25
629.95,10153.25
630.37,10192.41
630.78,10239.95
631.19,10294.41
631.61,10353.78
632.02,10415.69
632.44,10477.62
632.85,10537.07
633.26,10591.85
633.68,10640.18
634.09,10680.89
634.51,10713.45
634.92,10738.04
635.33,10755.47
635.75,10767.11
636.16,10774.79
636.57,10780.55
636.99,10786.55
637.40,10794.86
637.82,10807.30
638.23,10825.30
638.64,10849.81
639.06,10881.27
639.47,10919.51
639.88,10963.83
640.30,11013.05
640.71,11065.54
641.12,11119.37
641.53,11172.45
641.95,11222.63
642.36,11267.87
642.77,11306.41
643.19,11336.86
643.60,11358.38
644.01,11370.74
644.42,11374.36
644.84,11370.34
645.25,11360.39
645.66,11346.71
646.08,11331.82
646.49,11318.41
646.90,11309.07
647.31,11306.08
647.73,11311.24
648.14,11325.72
648.55,11349.94
648.96,11383.57
649.37,11425.57
649.79,11474.28
650.20,11527.59
650.61,11583.10
651.02,11638.36
651.43,11690.98
651.85,11738.90
652.26,11780.46
652.67,11814.54
653.08,11840.64
653.49,11858.83
653.90,11869.81
654.32,11874.80
654.73,11875.47
655.14,11873.80
655.55,11871.94
655.96,11872.04
656.37,11876.11
656.78,11885.87
657.20,11902.57
657.61,11926.95
658.02,11959.16
658.43,11998.72
658.84,12044.61
659.25,12095.29
659.66,12148.89
660.07,12203.31
660.48,12256.40
660.90,12306.14
661.31,12350.75
661.72,12388.85
662.13,12419.53
662.54,12442.40
662.95,12457.60
663.36,12465.77
663.77,12468.00
664.18,12465.78
664.59,12460.84
665.00,12455.12
665.41,12450.64
665.82,12449.37
666.23,12453.15
666.64,12463.54
667.05,12481.76
667.46,12508.55
667.87,12544.16
668.28,12588.23
668.69,12639.86
669.10,12697.63
669.51,12759.67
669.92,12823.76
670.33,12887.53
670.74,12948.61
671.15,13004.77
671.56,13054.10
671.97,13095.14
672.38,13126.95
672.79,13149.22
673.20,13162.22
673.61,13166.85
674.02,13164.52
674.42,13157.11
674.83,13146.82
675.24,13136.07
675.65,13127.30
676.06,13122.83
676.47,13124.71
676.88,13134.53
677.29,13153.37
677.70,13181.69
678.11,13219.28
678.51,13265.34
678.92,13318.48
679.33,13376.88
679.74,13438.41
680.15,13500.73
680.56,13561.52
680.97,13618.55
681.37,13669.84
681.78,13713.75
682.19,13749.09
682.60,13775.14
683.01,13791.74
683.42,13799.22
683.82,13798.47
684.23,13790.79
684.64,13777.89
685.05,13761.78
685.45,13744.60
685.86,13728.54
686.27,13715.69
686.68,13707.91
687.09,13706.70
687.49,13713.13
687.90,13727.77
688.31,13750.64
688.72,13781.26
689.12,13818.63
689.53,13861.38
689.94,13907.78
690.35,13955.93
690.75,14003.85
691.16,14049.57
691.57,14091.30
691.97,14127.46
692.38,14156.75
692.79,14178.26
693.20,14191.43
693.60,14196.14
694.01,14192.64
694.42,14181.63
694.82,14164.18
695.23,14141.70
695.64,14115.90
696.04,14088.70
696.45,14062.11
696.86,14038.12
697.26,14018.63
697.67,14005.26
698.07,13999.30
698.48,14001.62
698.89,14012.66
699.29,14032.36
699.70,14060.22
700.11,14095.29
700.51,14136.28
700.92,14181.53
701.32,14229.20
701.73,14277.23
702.14,14323.51
702.54,14365.96
702.95,14402.60
703.35,14431.74
703.76,14452.00
704.16,14462.47
704.57,14462.77
704.97,14453.09
705.38,14434.19
705.79,14407.40
706.19,14374.51
706.60,14337.69
707.00,14299.38
707.41,14262.09
707.81,14228.31
708.22,14200.34
708.62,14180.17
709.03,14169.38
709.43,14169.05
709.84,14179.75
710.24,14201.46
710.65,14233.67
711.05,14275.31
711.46,14324.91
711.86,14380.60
712.27,14440.23
712.67,14501.46
713.07,14561.88
713.48,14619.09
713.88,14670.88
714.29,14715.27
714.69,14750.69
715.10,14776.00
715.50,14790.61
715.90,14794.48
716.31,14788.13
716.71,14772.59
717.12,14749.33
717.52,14720.17
717.92,14687.17
718.33,14652.53
718.73,14618.46
719.14,14587.10
719.54,14560.42
719.94,14540.14
720.35,14527.64
720.75,14523.93
721.15,14529.60
721.56,14544.76
721.96,14569.07
722.36,14601.74
722.77,14641.57
723.17,14687.05
723.57,14736.40
723.98,14787.70
724.38,14838.99
724.78,14888.31
725.19,14933.84
725.59,14973.92
725.99,15007.11
726.39,15032.27
726.80,15048.53
727.20,15055.40
727.60,15052.74
728.00,15040.81
728.41,15020.31
728.81,14992.29
729.21,14958.22
729.61,14919.83
730.02,14879.14
730.42,14838.26
730.82,14799.38
731.22,14764.59
731.63,14735.83
732.03,14714.78
732.43,14702.78
732.83,14700.80
733.23,14709.37
733.64,14728.55
734.04,14757.96
734.44,14796.74
734.84,14843.61
735.24,14896.93
735.64,14954.74
736.05,15014.87
736.45,15075.07
736.85,15133.05
737.25,15186.64
737.65,15233.88
738.05,15273.04
738.45,15302.74
738.86,15321.94
739.26,15329.97
739.66,15326.54
740.06,15311.73
740.46,15285.98
740.86,15250.05
741.26,15205.01
741.66,15152.20
742.06,15093.18
742.46,15029.66
742.87,14963.48
743.27,14896.53
743.67,14830.71
744.07,14767.86
744.47,14709.80
744.87,14658.22
745.27,14614.72
745.67,14580.75
746.07,14557.61
746.47,14546.35
746.87,14547.76
747.27,14562.30
747.67,14590.00
748.07,14630.48
748.47,14682.88
748.87,14745.86
749.27,14817.69
749.67,14896.25
750.07,14979.20
750.47,15064.05
750.87,15148.26
751.27,15229.38
751.67,15305.12
752.07,15373.41
752.47,15432.46
752.87,15480.79
753.27,15517.23
753.66,15540.97
754.06,15551.57
754.46,15548.98
754.86,15533.57
755.26,15506.16
755.66,15467.98
756.06,15420.66
756.46,15366.21
756.86,15306.87
757.26,15245.04
757.65,15183.11
758.05,15123.36
758.45,15067.77
758.85,15017.92
759.25,14974.90
759.65,14939.26
760.05,14910.96
760.44,14889.42
760.84,14873.58
761.24,14862.01
761.64,14852.97
762.04,14844.59
762.44,14834.96
762.83,14822.21
763.23,14804.65
763.63,14780.79
764.03,14749.41
764.43,14709.56
764.82,14660.60
765.22,14602.15
765.62,14534.11
766.02,14456.66
766.41,14370.19
766.81,14275.35
767.21,14172.97
767.61,14064.09
768.00,13949.94
768.40,13831.91
768.80,13711.50
769.20,13590.37
769.59,13470.25
769.99,13352.93
770.39,13240.21
770.79,13133.87
771.18,13035.55
771.58,12946.74
771.98,12868.71
772.37,12802.36
772.77,12748.27
773.17,12706.56
773.56,12676.90
773.96,12658.52
774.36,12650.21
774.75,12650.40
775.15,12657.21
775.55,12668.57
775.94,12682.31
776.34,12696.29
776.73,12708.45
777.13,12716.95
777.53,12720.16
777.92,12716.77
778.32,12705.73
778.72,12686.28
779.11,12657.93
779.51,12620.43
779.90,12573.80
780.30,12518.23
780.69,12454.19
781.09,12382.34
781.49,12303.59
781.88,12219.10
782.28,12130.25
782.67,12038.65
783.07,11946.11
783.46,11854.58
783.86,11766.09
784.25,11682.71
784.65,11606.41
785.04,11539.01
785.44,11482.08
785.83,11436.83
786.23,11404.05
786.62,11384.06
787.02,11376.67
787.41,11381.17
787.81,11396.38
788.20,11420.66
788.60,11452.08
788.99,11488.42
789.39,11527.40
789.78,11566.71
790.18,11604.16
790.57,11637.77
790.97,11665.85
791.36,11687.02
791.75,11700.26
792.15,11704.88
792.54,11700.52
792.94,11687.06
793.33,11664.63
793.72,11633.53
794.12,11594.19
794.51,11547.15
794.91,11493.05
795.30,11432.56
795.69,11366.49
796.09,11295.70
796.48,11221.19
796.87,11144.06
797.27,11065.59
797.66,10987.13
798.05,10910.21
798.45,10836.38
798.84,10767.23
799.23,10704.29
799.63,10648.99
800.02,10602.53
800.41,10565.86
800.81,10539.62
801.20,10524.08
801.59,10519.16
801.99,10524.41
802.38,10539.09
802.77,10562.14
803.16,10592.31
803.56,10628.18
803.95,10668.22
804.34,10710.87
804.73,10754.57
805.13,10797.77
805.52,10839.01
805.91,10876.90
806.30,10910.14
806.69,10937.50
807.09,10957.91
807.48,10970.38
807.87,10974.09
808.26,10968.37
808.66,10952.78
809.05,10927.08
809.44,10891.29
809.83,10845.69
810.22,10790.82
810.61,10727.51
811.01,10656.79
811.40,10579.91
811.79,10498.29
812.18,10413.44
812.57,10326.96
812.96,10240.42
813.35,10155.41
813.75,10073.43
814.14,9995.89
814.53,9924.11
814.92,9859.25
815.31,9802.32
815.70,9754.15
816.09,9715.32
816.48,9686.20
816.87,9666.84
817.26,9657.00
817.65,9656.08
818.04,9663.23
818.44,9677.27
818.83,9696.82
819.22,9720.35
819.61,9746.23
820.00,9772.89
820.39,9798.81
820.78,9822.65
821.17,9843.25
821.56,9859.67
821.95,9871.18
822.34,9877.27
822.73,9877.54
823.12,9871.73
823.51,9859.64
823.90,9841.12
824.29,9816.05
824.68,9784.29
825.07,9745.77
825.46,9700.48
825.85,9648.47
826.24,9589.98
826.62,9525.38
827.01,9455.28
827.40,9380.48
827.79,9302.01
828.18,9221.09
828.57,9139.08
828.96,9057.47
829.35,8977.80
829.74,8901.62
830.13,8830.40
830.52,8765.54
830.90,8708.22
831.29,8659.43
831.68,8619.88
832.07,8590.00
832.46,8569.87
832.85,8559.29
833.24,8557.73
833.62,8564.40
834.01,8578.32
834.40,8598.32
834.79,8623.16
835.18,8651.58
835.57,8682.35
835.95,8714.27
836.34,8746.29
836.73,8777.41
837.12,8806.77
837.51,8833.58
837.89,8857.13
838.28,8876.76
838.67,8891.87
839.06,8901.88
839.44,8906.24
839.83,8904.45
840.22,8896.10
840.61,8880.84
840.99,8858.48
841.38,8828.96
841.77,8792.43
842.16,8749.21
842.54,8699.83
842.93,8644.99
843.32,8585.56
843.70,8522.53
844.09,8456.98
844.48,8390.06
844.86,8322.92
845.25,8256.74
845.64,8192.66
846.02,8131.75
846.41,8075.03
846.80,8023.40
847.18,7977.63
847.57,7938.30
847.96,7905.83
848.34,7880.45
848.73,7862.14
849.12,7850.75
849.50,7845.94
849.89,7847.23
850.27,7854.07
850.66,7865.84
851.05,7881.87
851.43,7901.50
851.82,7924.04
852.20,7948.82
852.59,7975.13
852.97,8002.26
853.36,8029.47
853.75,8056.04
854.13,8081.19
854.52,8104.20
854.90,8124.35
855.29,8141.01
855.67,8153.59
856.06,8161.64
856.44,8164.81
856.83,8162.89
857.21,8155.78
857.60,8143.55
857.98,8126.38
858.37,8104.58
858.75,8078.57
859.14,8048.87
859.52,8016.04
859.91,7980.73
860.29,7943.58
860.68,7905.21
861.06,7866.22
861.44,7827.15
861.83,7788.48
862.21,7750.62
862.60,7713.95
862.98,7678.84
863.37,7645.63
863.75,7614.70
864.13,7586.43
864.52,7561.23
864.90,7539.49
865.29,7521.57
865.67,7507.73
866.05,7498.16
866.44,7492.90
866.82,7491.85
867.20,7494.78
867.59,7501.31
867.97,7511.00
868.35,7523.28
868.74,7537.58
869.12,7553.27
869.50,7569.73
869.89,7586.37
870.27,7602.60
870.65,7617.89
871.04,7631.72
871.42,7643.66
871.80,7653.30
872.19,7660.32
872.57,7664.47
872.95,7665.61
873.33,7663.68
873.72,7658.77
874.10,7651.03
874.48,7640.74
874.86,7628.20
875.25,7613.79
875.63,7597.87
876.01,7580.77
876.39,7562.79
876.77,7544.17
877.16,7525.16
877.54,7505.96
877.92,7486.83
878.30,7468.09
878.68,7450.17
879.07,7433.59
879.45,7419.01
879.83,7407.18
880.21,7398.92
880.59,7395.08
880.97,7396.47
881.36,7403.88
881.74,7417.94
882.12,7439.17
882.50,7467.91
882.88,7504.31
883.26,7548.29
883.64,7599.60
884.02,7657.78
884.41,7722.19
884.79,7792.07
885.17,7866.56
885.55,7944.77
885.93,8025.80
886.31,8108.82
886.69,8193.05
887.07,8277.82
887.45,8362.51
887.83,8446.56
888.21,8529.46
888.59,8610.65
888.97,8689.55
889.35,8765.51
889.73,8837.79
890.11,8905.60
890.49,8968.06
890.87,9024.28
891.25,9073.35
891.63,9114.38
892.01,9146.54
892.39,9169.08
892.77,9181.39
893.15,9182.98
893.53,9173.55
893.91,9153.00
894.29,9121.41
894.67,9079.11
895.05,9026.62
895.43,8964.67
895.81,8894.13
896.19,8816.05
896.57,8731.51
896.95,8641.64
897.32,8547.53
897.70,8450.21
898.08,8350.58
898.46,8249.41
898.84,8147.33
899.22,8044.86
899.60,7942.39
899.98,7840.26
900.35,7738.80
900.73,7638.30
901.11,7539.12
901.49,7441.67
901.87,7346.37
902.25,7253.74
902.63,7164.28
903.00,7078.49
903.38,6996.83
903.76,6919.66
904.14,6847.25
904.52,6779.67
904.89,6716.87
905.27,6658.61
905.65,6604.50
906.03,6554.02
906.40,6506.56
906.78,6461.48
907.16,6418.13
907.54,6375.91
907.91,6334.32
908.29,6292.97
908.67,6251.59
909.05,6210.01
909.42,6168.19
909.80,6126.14
910.18,6083.92
910.55,6041.58
910.93,5999.19
911.31,5956.77
911.68,5914.33
912.06,5871.82
912.44,5829.22
912.82,5786.48
913.19,5743.59
913.57,5700.54
913.94,5657.36
914.32,5614.09
914.70,5570.81
915.07,5527.57
915.45,5484.43
915.83,5441.44
916.20,5398.64
916.58,5356.08
916.95,5313.79
917.33,5271.83
917.71,5230.28
918.08,5189.25
918.46,5148.84
918.83,5109.19
919.21,5070.43
919.58,5032.71
919.96,4996.16
920.34,4960.88
920.71,4927.00
921.09,4894.60
921.46,4863.79
921.84,4834.64
922.21,4807.25
922.59,4781.66
922.96,4757.92
923.34,4736.04
923.71,4715.96
924.09,4697.58
924.46,4680.75
924.84,4665.26
925.21,4650.87
925.59,4637.31
925.96,4624.32
926.34,4611.62
926.71,4599.01
927.08,4586.25
927.46,4573.20
927.83,4559.70
928.21,4545.65
928.58,4530.94
928.96,4515.51
929.33,4499.29
929.70,4482.24
930.08,4464.33
930.45,4445.52
930.83,4425.80
931.20,4405.13
931.57,4383.51
931.95,4360.93
932.32,4337.38
932.69,4312.89
933.07,4287.52
933.44,4261.35
933.81,4234.50
934.19,4207.11
934.56,4179.34
934.93,4151.32
935.31,4123.19
935.68,4095.04
936.05,4066.92
936.43,4038.84
936.80,4010.79
937.17,3982.72
937.54,3954.58
937.92,3926.34
938.29,3897.96
938.66,3869.43
939.03,3840.75
939.41,3811.93
939.78,3783.02
940.15,3754.06
940.52,3725.12
940.90,3696.31
941.27,3667.76
941.64,3639.64
942.01,3612.11
942.38,3585.40
942.76,3559.66
943.13,3535.07
943.50,3511.73
943.87,3489.69
944.24,3468.91
944.61,3449.31
944.99,3430.71
945.36,3412.90
945.73,3395.64
946.10,3378.70
946.47,3361.85
946.84,3344.94
947.21,3327.87
947.59,3310.62
947.96,3293.29
948.33,3276.00
948.70,3258.96
949.07,3242.38
949.44,3226.47
949.81,3211.37
950.18,3197.17
950.55,3183.85
950.92,3171.29
951.29,3159.29
951.66,3147.58
952.03,3135.87
952.41,3123.86
952.78,3111.26
953.15,3097.85
953.52,3083.48
953.89,3068.06
954.26,3051.58
954.63,3034.08
955.00,3015.65
955.37,2996.39
955.74,2976.46
956.11,2955.96
956.48,2935.03
956.84,2913.76
957.21,2892.22
957.58,2870.47
957.95,2848.54
958.32,2826.43
958.69,2804.13
959.06,2781.63
959.43,2758.92
959.80,2736.00
960.17,2712.88
960.54,2689.63
960.91,2666.31
961.28,2643.04
961.64,2619.94
962.01,2597.17
962.38,2574.85
962.75,2553.10
963.12,2532.00
963.49,2511.58
963.86,2491.81
964.22,2472.62
964.59,2453.92
964.96,2435.61
965.33,2417.58
965.70,2399.77
966.07,2382.15
966.43,2364.74
966.80,2347.62
967.17,2330.86
967.54,2314.59
967.91,2298.91
968.27,2283.92
968.64,2269.66
969.01,2256.18
969.38,2243.45
969.74,2231.42
970.11,2219.99
970.48,2209.03
970.85,2198.37
971.21,2187.82
971.58,2177.18
971.95,2166.26
972.31,2154.89
972.68,2142.94
973.05,2130.33
973.42,2117.05
973.78,2103.14
974.15,2088.69
974.52,2073.81
974.88,2058.62
975.25,2043.23
975.62,2027.72
975.98,2012.13
976.35,1996.48
976.72,1980.76
977.08,1964.95
977.45,1949.06
977.81,1933.09
978.18,1917.09
978.55,1901.13
978.91,1885.30
979.28,1869.69
979.64,1854.39
980.01,1839.50
980.38,1825.07
980.74,1811.13
981.11,1797.69
981.47,1784.72
981.84,1772.16
982.20,1759.94
982.57,1747.96
982.93,1736.12
983.30,1724.31
983.66,1712.43
984.03,1700.39
984.39,1688.14
984.76,1675.63
985.12,1662.88
985.49,1649.93
985.85,1636.87
986.22,1623.81
986.58,1610.89
986.95,1598.24
987.31,1585.98
987.68,1574.19
988.04,1562.92
988.41,1552.18
988.77,1541.90
989.13,1532.00
989.50,1522.35
989.86,1512.79
990.23,1503.18
990.59,1493.38
990.96,1483.27
991.32,1472.79
991.68,1461.92
992.05,1450.68
992.41,1439.14
992.77,1427.44
993.14,1415.71
993.50,1404.13
993.86,1392.86
994.23,1382.07
994.59,1371.86
994.95,1362.33
995.32,1353.50
995.68,1345.37
996.04,1337.86
996.41,1330.86
996.77,1324.25
997.13,1317.85
997.50,1311.51
997.86,1305.06
998.22,1298.36
998.58,1291.26
998.95,1283.67
999.31,1275.51
999.67,1266.72
1000.03,1257.30
1000.40,1247.25
1000.76,1236.65
1001.12,1225.60
1001.48,1214.21
1001.84,1202.67
1002.21,1191.13
1002.57,1179.76
1002.93,1168.73
1003.29,1158.15
1003.65,1148.09
1004.02,1138.58
1004.38,1129.60
1004.74,1121.10
1005.10,1113.00
1005.46,1105.22
1005.82,1097.68
1006.19,1090.33
1006.55,1083.15
1006.91,1076.14
1007.27,1069.32
1007.63,1062.72
1007.99,1056.39
1008.35,1050.37
1008.71,1044.67
1009.07,1039.30
1009.43,1034.24
1009.80,1029.47
1010.16,1024.94
1010.52,1020.58
1010.88,1016.31
1011.24,1012.05
1011.60,1007.70
1011.96,1003.19
1012.32,998.46
1012.68,993.46
1013.04,988.19
1013.40,982.68
1013.76,977.00
1014.12,971.24
1014.48,965.51
1014.84,959.90
1015.20,954.50
1015.56,949.35
1015.92,944.46
1016.28,939.78
1016.64,935.23
1017.00,930.68
1017.36,926.02
1017.72,921.11
1018.07,915.88
1018.43,910.28
1018.79,904.29
1019.15,897.99
1019.51,891.45
1019.87,884.80
1020.23,878.17
1020.59,871.68
1020.95,865.41
1021.31,859.42
1021.66,853.72
1022.02,848.30
1022.38,843.11
1022.74,838.08
1023.10,833.15
1023.46,828.26
1023.81,823.36
1024.17,818.40
1024.53,813.38
1024.89,808.27
1025.25,803.05
1025.60,797.64
1025.96,792.07
1026.32,786.39
1026.68,780.78
1027.04,774.12
1027.39,766.21
1027.75,760.66
1028.11,757.64
1028.47,757.18
1028.82,711.82
1029.18,696.57
1029.54,815.97
1029.90,815.97
1030.25,815.97
