wavelength,counts
188.65,168.91
189.10,168.91
189.56,168.91
190.01,168.91
190.47,168.91
190.92,174.98
191.37,178.87
191.83,184.22
192.28,191.21
192.74,199.95
193.19,210.45
193.64,222.61
194.10,236.30
194.55,251.33
195.01,267.45
195.46,284.43
195.91,302.07
196.37,320.18
196.82,338.61
197.27,357.23
197.73,375.95
198.18,394.65
198.63,413.22
199.09,431.54
199.54,449.44
199.99,466.74
200.45,483.22
200.90,498.69
201.35,512.95
201.81,525.83
202.26,537.25
202.71,547.14
203.17,555.56
203.62,562.58
204.07,568.37
204.53,573.11
204.98,577.00
205.43,580.21
205.89,582.91
206.34,585.21
206.79,587.16
207.25,588.78
207.70,590.05
208.15,590.93
208.60,591.37
209.06,591.33
209.51,590.79
209.96,589.75
210.41,588.27
210.87,586.41
211.32,584.26
211.77,581.95
212.23,579.58
212.68,577.25
213.13,575.03
213.58,572.97
214.04,571.07
214.49,569.28
214.94,567.53
215.39,565.75
215.84,563.84
216.30,561.73
216.75,559.42
217.20,556.93
217.65,554.34
218.11,551.79
218.56,549.41
219.01,547.37
219.46,545.80
219.91,544.77
220.37,544.32
220.82,544.41
221.27,544.95
221.72,545.81
222.17,546.88
222.63,548.02
223.08,549.15
223.53,550.21
223.98,551.21
224.43,552.17
224.88,553.14
225.34,554.16
225.79,555.26
226.24,556.43
226.69,557.63
227.14,558.77
227.59,559.77
228.04,560.51
228.50,560.92
228.95,560.93
229.40,560.53
229.85,559.77
230.30,558.73
230.75,557.53
231.20,556.32
231.66,555.23
232.11,554.41
232.56,553.94
233.01,553.89
233.46,554.25
233.91,554.99
234.36,556.03
234.81,557.25
235.26,558.53
235.71,559.74
236.17,560.74
236.62,561.43
237.07,561.73
237.52,561.59
237.97,561.02
238.42,560.05
238.87,558.76
239.32,557.27
239.77,555.72
240.22,554.25
240.67,553.00
241.12,552.13
241.57,551.71
242.02,551.83
242.47,552.48
242.92,553.65
243.37,555.25
243.82,557.15
244.27,559.21
244.72,561.25
245.18,563.12
245.63,564.66
246.08,565.74
246.53,566.28
246.98,566.23
247.43,565.62
247.88,564.49
248.33,562.94
248.78,561.12
249.23,559.18
249.68,557.28
250.12,555.59
250.57,554.23
251.02,553.31
251.47,552.89
251.92,552.99
252.37,553.56
252.82,554.54
253.27,555.81
253.72,557.24
254.17,558.71
254.62,560.10
255.07,561.29
255.52,562.21
255.97,562.83
256.42,563.15
256.87,563.20
257.32,563.06
257.77,562.79
258.22,562.50
258.66,562.27
259.11,562.17
259.56,562.25
260.01,562.52
260.46,562.96
260.91,563.55
261.36,564.22
261.81,564.91
262.26,565.55
262.71,566.09
263.15,566.52
263.60,566.82
264.05,567.02
264.50,567.18
264.95,567.34
265.40,567.56
265.85,567.89
266.30,568.35
266.74,568.95
267.19,569.66
267.64,570.42
268.09,571.16
268.54,571.82
268.99,572.33
269.43,572.63
269.88,572.73
270.33,572.64
270.78,572.40
271.23,572.11
271.68,571.85
272.12,571.71
272.57,571.79
273.02,572.12
273.47,572.74
273.92,573.62
274.36,574.70
274.81,575.90
275.26,577.09
275.71,578.17
276.16,579.01
276.60,579.52
277.05,579.63
277.50,579.32
277.95,578.60
278.39,577.53
278.84,576.19
279.29,574.72
279.74,573.24
280.19,571.90
280.63,570.83
281.08,570.14
281.53,569.90
281.98,570.17
282.42,570.94
282.87,572.19
283.32,573.82
283.76,575.74
284.21,577.82
284.66,579.90
285.11,581.84
285.55,583.50
286.00,584.76
286.45,585.52
286.89,585.73
287.34,585.38
287.79,584.51
288.23,583.18
288.68,581.51
289.13,579.62
289.58,577.65
290.02,575.71
290.47,573.92
290.92,572.35
291.36,571.03
291.81,569.97
292.26,569.14
292.70,568.50
293.15,567.99
293.60,567.56
294.04,567.18
294.49,566.82
294.93,566.49
295.38,566.19
295.83,565.94
296.27,565.75
296.72,565.62
297.17,565.53
297.61,565.48
298.06,565.44
298.50,565.39
298.95,565.33
299.40,565.26
299.84,565.21
300.29,565.20
300.73,565.27
301.18,565.46
301.63,565.80
302.07,566.28
302.52,566.91
302.96,567.64
303.41,568.43
303.85,569.23
304.30,569.97
304.75,570.60
305.19,571.08
305.64,571.39
306.08,571.51
306.53,571.47
306.97,571.30
307.42,571.03
307.86,570.70
308.31,570.36
308.75,570.01
309.20,569.68
309.65,569.32
310.09,568.94
310.54,568.48
310.98,567.93
311.43,567.28
311.87,566.53
312.32,565.72
312.76,564.90
313.21,564.14
313.65,563.52
314.10,563.11
314.54,562.97
314.99,563.13
315.43,563.60
315.87,564.37
316.32,565.42
316.76,566.71
317.21,568.18
317.65,569.81
318.10,571.54
318.54,573.34
318.99,575.18
319.43,577.04
319.88,578.87
320.32,580.65
320.76,582.34
321.21,583.90
321.65,585.27
322.10,586.40
322.54,587.22
322.99,587.67
323.43,587.70
323.87,587.27
324.32,586.40
324.76,585.11
325.21,583.47
325.65,581.59
326.09,579.60
326.54,577.64
326.98,575.87
327.42,574.39
327.87,573.31
328.31,572.68
328.76,572.50
329.20,572.75
329.64,573.35
330.09,574.24
330.53,575.33
330.97,576.54
331.42,577.79
331.86,579.04
332.30,580.23
332.75,581.33
333.19,582.32
333.63,583.18
334.08,583.90
334.52,584.48
334.96,584.92
335.41,585.25
335.85,585.49
336.29,585.70
336.74,585.90
337.18,586.14
337.62,586.45
338.06,586.83
338.51,587.28
338.95,587.77
339.39,588.26
339.84,588.72
340.28,589.11
340.72,589.41
341.16,589.60
341.61,589.71
342.05,589.77
342.49,589.79
342.93,589.80
343.38,589.82
343.82,589.83
344.26,589.81
344.70,589.70
345.15,589.44
345.59,588.97
346.03,588.22
346.47,587.15
346.92,585.74
347.36,583.99
347.80,581.97
348.24,579.77
348.68,577.49
349.13,575.30
349.57,573.36
350.01,571.81
350.45,570.79
350.89,570.39
351.34,570.67
351.78,571.62
352.22,573.17
352.66,575.21
353.10,577.61
353.54,580.23
353.99,582.90
354.43,585.51
354.87,587.93
355.31,590.09
355.75,591.90
356.19,593.33
356.63,594.33
357.08,594.88
357.52,594.95
357.96,594.54
358.40,593.68
358.84,592.41
359.28,590.80
359.72,588.95
360.16,586.97
360.60,585.00
361.05,583.15
361.49,581.54
361.93,580.25
362.37,579.35
362.81,578.87
363.25,578.81
363.69,579.17
364.13,579.91
364.57,581.01
365.01,582.40
365.45,584.04
365.89,585.85
366.33,587.78
366.78,589.73
367.22,591.63
367.66,593.43
368.10,595.06
368.54,596.48
368.98,597.69
369.42,598.71
369.86,599.56
370.30,600.32
370.74,601.04
371.18,601.80
371.62,602.65
372.06,603.65
372.50,604.82
372.94,606.14
373.38,607.60
373.82,609.13
374.26,610.67
374.70,612.15
375.14,613.50
375.58,614.68
376.02,615.64
376.46,616.38
376.90,616.93
377.34,617.34
377.78,617.66
378.21,617.98
378.65,618.37
379.09,618.91
379.53,619.64
379.97,620.57
380.41,621.69
380.85,622.96
381.29,624.30
381.73,625.62
382.17,626.82
382.61,627.81
383.05,628.51
383.49,628.87
383.93,628.88
384.36,628.55
384.80,627.94
385.24,627.13
385.68,626.22
386.12,625.33
386.56,624.60
387.00,624.13
387.44,624.05
387.87,624.45
388.31,625.38
388.75,626.87
389.19,628.90
389.63,631.42
390.07,634.32
390.51,637.48
390.94,640.77
391.38,644.04
391.82,647.17
392.26,650.07
392.70,652.68
393.14,654.97
393.57,656.97
394.01,658.68
394.45,660.13
394.89,661.35
395.33,662.35
395.76,663.10
396.20,663.59
396.64,663.81
397.08,663.75
397.52,663.45
397.95,663.00
398.39,662.51
398.83,662.17
399.27,662.17
399.70,662.72
400.14,664.01
400.58,666.18
401.02,669.31
401.45,673.38
401.89,678.31
402.33,683.91
402.77,689.96
403.20,696.18
403.64,702.28
404.08,708.00
404.52,713.13
404.95,717.54
405.39,721.15
405.83,724.01
406.26,726.23
406.70,727.99
407.14,729.53
407.58,731.12
408.01,733.04
408.45,735.54
408.89,738.85
409.32,743.13
409.76,748.47
410.20,754.89
410.63,762.33
411.07,770.66
411.51,779.68
411.94,789.19
412.38,798.95
412.82,808.75
413.25,818.40
413.69,827.76
414.12,836.73
414.56,845.26
415.00,853.33
415.43,860.95
415.87,868.16
416.31,874.96
416.74,881.40
417.18,887.49
417.61,893.25
418.05,898.70
418.49,903.87
418.92,908.79
419.36,913.54
419.79,918.19
420.23,922.85
420.67,927.61
421.10,932.59
421.54,937.89
421.97,943.59
422.41,949.73
422.84,956.32
423.28,963.32
423.71,970.64
424.15,978.15
424.59,985.67
425.02,993.04
425.46,1000.08
425.89,1006.65
426.33,1012.66
426.76,1018.11
427.20,1023.05
427.63,1027.65
428.07,1032.11
428.50,1036.67
428.94,1041.58
429.37,1047.07
429.81,1053.28
430.24,1060.30
430.68,1068.10
431.11,1076.60
431.55,1085.62
431.98,1094.98
432.42,1104.47
432.85,1113.90
433.28,1123.16
433.72,1132.15
434.15,1140.87
434.59,1149.35
435.02,1157.67
435.46,1165.92
435.89,1174.22
436.33,1182.63
436.76,1191.23
437.19,1200.03
437.63,1209.00
438.06,1218.09
438.50,1227.21
438.93,1236.26
439.37,1245.13
439.80,1253.72
440.23,1261.95
440.67,1269.77
441.10,1277.19
441.53,1284.22
441.97,1290.92
442.40,1297.36
442.84,1303.62
443.27,1309.79
443.70,1315.93
444.14,1322.09
444.57,1328.30
445.00,1334.59
445.44,1340.94
445.87,1347.38
446.30,1353.90
446.74,1360.53
447.17,1367.30
447.60,1374.23
448.04,1381.38
448.47,1388.77
448.90,1396.41
449.34,1404.30
449.77,1412.38
450.20,1420.60
450.64,1428.86
451.07,1437.07
451.50,1445.16
451.93,1453.06
452.37,1460.75
452.80,1468.23
453.23,1475.56
453.67,1482.79
454.10,1490.02
454.53,1497.33
454.96,1504.81
455.40,1512.55
455.83,1520.59
456.26,1529.00
456.69,1537.81
457.13,1547.07
457.56,1556.82
457.99,1567.10
458.42,1577.95
458.86,1589.41
459.29,1601.49
459.72,1614.19
460.15,1627.47
460.58,1641.27
461.02,1655.48
461.45,1669.99
461.88,1684.67
462.31,1699.42
462.74,1714.13
463.18,1728.73
463.61,1743.20
464.04,1757.53
464.47,1771.77
464.90,1785.97
465.33,1800.22
465.77,1814.60
466.20,1829.20
466.63,1844.08
467.06,1859.30
467.49,1874.92
467.92,1890.98
468.35,1907.52
468.78,1924.58
469.22,1942.24
469.65,1960.56
470.08,1979.64
470.51,1999.56
470.94,2020.39
471.37,2042.16
471.80,2064.85
472.23,2088.41
472.66,2112.74
473.10,2137.70
473.53,2163.16
473.96,2188.99
474.39,2215.13
474.82,2241.55
475.25,2268.30
475.68,2295.48
476.11,2323.22
476.54,2351.68
476.97,2380.98
477.40,2411.26
477.83,2442.57
478.26,2474.93
478.69,2508.31
479.12,2542.61
479.55,2577.67
479.98,2613.31
480.41,2649.29
480.84,2685.37
481.27,2721.30
481.70,2756.85
482.13,2791.85
482.56,2826.19
482.99,2859.82
483.42,2892.76
483.85,2925.07
484.28,2956.86
484.71,2988.22
485.14,3019.22
485.57,3049.91
486.00,3080.30
486.43,3110.37
486.86,3140.10
487.29,3169.44
487.72,3198.37
488.15,3226.87
488.58,3254.92
489.01,3282.50
489.44,3309.59
489.87,3336.17
490.30,3362.23
490.72,3387.82
491.15,3413.05
491.58,3438.14
492.01,3463.35
492.44,3489.03
492.87,3515.54
493.30,3543.17
493.73,3572.11
494.16,3602.37
494.59,3633.77
495.01,3665.94
495.44,3698.38
495.87,3730.55
496.30,3761.90
496.73,3792.02
497.16,3820.63
497.59,3847.60
498.01,3872.96
498.44,3896.80
498.87,3919.26
499.30,3940.40
499.73,3960.26
500.16,3978.78
500.58,3995.92
501.01,4011.64
501.44,4025.99
501.87,4039.18
502.30,4051.51
502.72,4063.43
503.15,4075.41
503.58,4087.89
504.01,4101.21
504.44,4115.58
504.86,4131.04
505.29,4147.49
505.72,4164.75
506.15,4182.67
506.57,4201.14
507.00,4220.16
507.43,4239.84
507.86,4260.36
508.28,4281.93
508.71,4304.70
509.14,4328.68
509.57,4353.76
509.99,4379.64
510.42,4405.93
510.85,4432.20
511.27,4458.06
511.70,4483.21
512.13,4507.55
512.56,4531.08
512.98,4553.96
513.41,4576.35
513.84,4598.39
514.26,4620.07
514.69,4641.22
515.12,4661.48
515.54,4680.35
515.97,4697.31
516.40,4711.90
516.82,4723.83
517.25,4733.10
517.68,4739.99
518.10,4745.05
518.53,4749.01
518.95,4752.67
519.38,4756.76
519.81,4761.83
520.23,4768.13
520.66,4775.67
521.09,4784.18
521.51,4793.26
521.94,4802.46
522.36,4811.41
522.79,4819.91
523.22,4827.98
523.64,4835.82
524.07,4843.75
524.49,4852.13
524.92,4861.26
525.34,4871.23
525.77,4881.98
526.20,4893.22
526.62,4904.55
527.05,4915.53
527.47,4925.82
527.90,4935.26
528.32,4943.96
528.75,4952.29
529.17,4960.84
529.60,4970.30
530.02,4981.35
530.45,4994.47
530.87,5009.90
531.30,5027.49
531.72,5046.75
532.15,5066.90
532.57,5086.99
533.00,5106.07
533.42,5123.34
533.85,5138.31
534.27,5150.83
534.70,5161.20
535.12,5170.01
535.55,5178.10
535.97,5186.31
536.40,5195.39
536.82,5205.74
537.25,5217.41
537.67,5229.96
538.09,5242.62
538.52,5254.32
538.94,5263.95
539.37,5270.51
539.79,5273.32
540.22,5272.17
540.64,5267.36
541.06,5259.67
541.49,5250.23
541.91,5240.40
542.34,5231.45
542.76,5224.44
543.18,5220.02
543.61,5218.33
544.03,5219.01
544.46,5221.29
544.88,5224.16
545.30,5226.56
545.73,5227.60
546.15,5226.72
546.57,5223.84
547.00,5219.35
547.42,5214.06
547.84,5209.05
548.27,5205.48
548.69,5204.40
549.11,5206.52
549.54,5212.13
549.96,5221.00
550.38,5232.45
550.81,5245.42
551.23,5258.75
551.65,5271.27
552.07,5282.10
552.50,5290.75
552.92,5297.23
553.34,5302.03
553.77,5306.04
554.19,5310.39
554.61,5316.22
555.03,5324.49
555.46,5335.79
555.88,5350.23
556.30,5367.39
556.72,5386.36
557.15,5405.91
557.57,5424.67
557.99,5441.28
558.41,5454.71
558.84,5464.30
559.26,5469.94
559.68,5472.08
560.10,5471.60
560.52,5469.77
560.95,5467.97
561.37,5467.55
561.79,5469.60
562.21,5474.77
562.63,5483.20
563.06,5494.48
563.48,5507.69
563.90,5521.53
564.32,5534.56
564.74,5545.35
565.16,5552.75
565.58,5556.07
566.01,5555.22
566.43,5550.74
566.85,5543.75
567.27,5535.81
567.69,5528.73
568.11,5524.26
568.53,5523.86
568.96,5528.47
569.38,5538.31
569.80,5552.83
570.22,5570.77
570.64,5590.24
571.06,5609.03
571.48,5624.85
571.90,5635.62
572.32,5639.81
572.74,5636.57
573.16,5625.92
573.58,5608.68
574.01,5586.45
574.43,5561.33
574.85,5535.69
575.27,5511.89
575.69,5491.94
576.11,5477.33
576.53,5468.80
576.95,5466.33
577.37,5469.15
577.79,5475.88
578.21,5484.76
578.63,5493.87
579.05,5501.48
579.47,5506.21
579.89,5507.32
580.31,5504.74
580.73,5499.17
581.15,5491.94
581.57,5484.87
581.99,5480.02
582.41,5479.41
582.83,5484.72
583.25,5497.07
583.67,5516.84
584.09,5543.58
584.51,5576.00
584.93,5612.17
585.34,5649.68
585.76,5685.96
586.18,5718.55
586.60,5745.43
587.02,5765.28
587.44,5777.60
587.86,5782.81
588.28,5782.24
588.70,5777.93
589.12,5772.43
589.54,5768.53
589.95,5768.90
590.37,5775.85
590.79,5791.03
591.21,5815.27
591.63,5848.51
592.05,5889.79
592.47,5937.37
592.89,5988.96
593.30,6041.93
593.72,6093.59
594.14,6141.53
594.56,6183.84
594.98,6219.30
595.40,6247.52
595.81,6268.96
596.23,6284.89
596.65,6297.19
597.07,6308.18
597.49,6320.30
597.90,6335.84
598.32,6356.69
598.74,6384.03
599.16,6418.27
599.58,6458.92
599.99,6504.64
600.41,6553.38
600.83,6602.56
601.25,6649.38
601.66,6691.09
602.08,6725.27
602.50,6750.11
602.92,6764.58
603.33,6768.54
603.75,6762.73
604.17,6748.71
604.59,6728.67
605.00,6705.20
605.42,6681.04
605.84,6658.77
606.25,6640.62
606.67,6628.19
607.09,6622.38
607.51,6623.32
607.92,6630.36
608.34,6642.22
608.76,6657.13
609.17,6673.05
609.59,6687.91
610.01,6699.80
610.42,6707.24
610.84,6709.26
611.26,6705.54
611.67,6696.47
612.09,6683.02
612.51,6666.74
612.92,6649.50
613.34,6633.41
613.75,6620.52
614.17,6612.66
614.59,6611.26
615.00,6617.23
615.42,6630.84
615.83,6651.72
616.25,6678.90
616.67,6710.87
617.08,6745.75
617.50,6781.45
617.91,6815.86
618.33,6847.03
618.75,6873.39
619.16,6893.84
619.58,6907.90
619.99,6915.76
620.41,6918.19
620.82,6916.54
621.24,6912.57
621.65,6908.29
622.07,6905.71
622.48,6906.73
622.90,6912.88
623.31,6925.26
623.73,6944.37
624.14,6970.13
624.56,7001.89
624.97,7038.52
625.39,7078.47
625.80,7119.95
626.22,7161.08
626.63,7200.01
627.05,7235.08
627.46,7264.92
627.88,7288.58
628.29,7305.56
628.71,7315.85
629.12,7319.94
629.54,7318.77
629.95,7313.65
630.37,7306.16
630.78,7298.05
631.19,7291.05
631.61,7286.79
632.02,7286.60
632.44,7291.49
632.85,7302.01
633.26,7318.22
633.68,7339.74
634.09,7365.73
634.51,7394.99
634.92,7426.09
635.33,7457.43
635.75,7487.43
636.16,7514.60
636.57,7537.73
636.99,7555.95
637.40,7568.82
637.82,7576.40
638.23,7579.22
638.64,7578.26
639.06,7574.85
639.47,7570.55
639.88,7567.01
640.30,7565.81
640.71,7568.31
641.12,7575.51
641.53,7588.01
641.95,7605.94
642.36,7628.98
642.77,7656.39
643.19,7687.16
643.60,7720.03
644.01,7753.66
644.42,7786.71
644.84,7817.96
645.25,7846.35
645.66,7871.08
646.08,7891.60
646.49,7907.68
646.90,7919.40
647.31,7927.16
647.73,7931.62
648.14,7933.72
648.55,7934.63
648.96,7935.68
649.37,7938.29
649.79,7943.86
650.20,7953.72
650.61,7968.97
651.02,7990.42
651.43,8018.44
651.85,8052.99
652.26,8093.51
652.67,8138.98
653.08,8188.00
653.49,8238.86
653.90,8289.71
654.32,8338.71
654.73,8384.17
655.14,8424.70
655.55,8459.30
655.96,8487.43
656.37,8509.05
656.78,8524.53
657.20,8534.65
657.61,8540.50
658.02,8543.37
658.43,8544.67
658.84,8545.82
659.25,8548.18
659.66,8552.99
660.07,8561.30
660.48,8573.91
660.90,8591.39
661.31,8614.01
661.72,8641.75
662.13,8674.30
662.54,8711.07
662.95,8751.22
663.36,8793.69
663.77,8837.27
664.18,8880.67
664.59,8922.58
665.00,8961.76
665.41,8997.10
665.82,9027.72
666.23,9053.02
666.64,9072.72
667.05,9086.91
667.46,9096.04
667.87,9100.89
668.28,9102.56
668.69,9102.37
669.10,9101.75
669.51,9102.18
669.92,9105.03
670.33,9111.48
670.74,9122.43
671.15,9138.42
671.56,9159.58
671.97,9185.66
672.38,9216.06
672.79,9249.83
673.20,9285.80
673.61,9322.64
674.02,9358.95
674.42,9393.35
674.83,9424.54
675.24,9451.40
675.65,9473.03
676.06,9488.79
676.47,9498.33
676.88,9501.62
677.29,9498.96
677.70,9490.99
678.11,9478.61
678.51,9463.01
678.92,9445.55
679.33,9427.73
679.74,9411.05
680.15,9396.97
680.56,9386.78
680.97,9381.53
681.37,9381.99
681.78,9388.56
682.19,9401.29
682.60,9419.86
683.01,9443.62
683.42,9471.61
683.82,9502.64
684.23,9535.35
684.64,9568.29
685.05,9600.01
685.45,9629.12
685.86,9654.41
686.27,9674.86
686.68,9689.76
687.09,9698.70
687.49,9701.61
687.90,9698.77
688.31,9690.76
688.72,9678.44
689.12,9662.88
689.53,9645.34
689.94,9627.14
690.35,9609.62
690.75,9594.07
691.16,9581.64
691.57,9573.31
691.97,9569.83
692.38,9571.66
692.79,9579.02
693.20,9591.81
693.60,9609.67
694.01,9631.99
694.42,9657.94
694.82,9686.53
695.23,9716.64
695.64,9747.08
696.04,9776.66
696.45,9804.25
696.86,9828.80
697.26,9849.46
697.67,9865.56
698.07,9876.69
698.48,9882.71
698.89,9883.76
699.29,9880.22
699.70,9872.72
700.11,9862.10
700.51,9849.33
700.92,9835.48
701.32,9821.67
701.73,9808.99
702.14,9798.48
702.54,9791.03
702.95,9787.41
703.35,9788.17
703.76,9793.67
704.16,9804.03
704.57,9819.18
704.97,9838.85
705.38,9862.57
705.79,9889.75
706.19,9919.67
706.60,9951.51
707.00,9984.38
707.41,10017.35
707.81,10049.43
708.22,10079.64
708.62,10107.00
709.03,10130.60
709.43,10149.60
709.84,10163.34
710.24,10171.37
710.65,10173.52
711.05,10169.94
711.46,10161.14
711.86,10147.96
712.27,10131.58
712.67,10113.42
713.07,10095.02
713.48,10077.98
713.88,10063.79
714.29,10053.75
714.69,10048.85
715.10,10049.75
715.50,10056.73
715.90,10069.75
716.31,10088.43
716.71,10112.15
717.12,10140.09
717.52,10171.31
717.92,10204.78
718.33,10239.47
718.73,10274.30
719.14,10308.27
719.54,10340.40
719.94,10369.80
720.35,10395.64
720.75,10417.23
721.15,10434.01
721.56,10445.55
721.96,10451.59
722.36,10452.06
722.77,10447.07
723.17,10436.95
723.57,10422.20
723.98,10403.56
724.38,10381.90
724.78,10358.27
725.19,10333.81
725.59,10309.72
725.99,10287.20
726.39,10267.37
726.80,10251.24
727.20,10239.62
727.60,10233.12
728.00,10232.09
728.41,10236.60
728.81,10246.48
729.21,10261.29
729.61,10280.36
730.02,10302.81
730.42,10327.60
730.82,10353.53
731.22,10379.32
731.63,10403.63
732.03,10425.14
732.43,10442.58
732.83,10454.80
733.23,10460.87
733.64,10460.06
734.04,10451.98
734.44,10436.50
734.84,10413.86
735.24,10384.60
735.64,10349.54
736.05,10309.75
736.45,10266.48
736.85,10221.13
737.25,10175.12
737.65,10129.90
738.05,10086.81
738.45,10047.07
738.86,10011.67
739.26,9981.40
739.66,9956.74
740.06,9937.94
740.46,9924.95
740.86,9917.51
741.26,9915.18
741.66,9917.36
742.06,9923.37
742.46,9932.47
742.87,9943.90
743.27,9956.89
743.67,9970.66
744.07,9984.44
744.47,9997.47
744.87,10008.95
745.27,10018.12
745.67,10024.25
746.07,10026.65
746.47,10024.74
746.87,10018.09
747.27,10006.47
747.67,9989.88
748.07,9968.62
748.47,9943.27
748.87,9914.72
749.27,9884.15
749.67,9852.93
750.07,9822.61
750.47,9794.77
750.87,9770.97
751.27,9752.61
751.67,9740.89
752.07,9736.66
752.47,9740.45
752.87,9752.41
753.27,9772.33
753.66,9799.64
754.06,9833.47
754.46,9872.68
754.86,9915.92
755.26,9961.68
755.66,10008.34
756.06,10054.21
756.46,10097.58
756.86,10136.79
757.26,10170.25
757.65,10196.54
758.05,10214.44
758.45,10222.97
758.85,10221.44
759.25,10209.49
759.65,10187.04
760.05,10154.32
760.44,10111.83
760.84,10060.29
761.24,10000.62
761.64,9933.87
762.04,9861.20
762.44,9783.87
762.83,9703.19
763.23,9620.51
763.63,9537.24
764.03,9454.77
764.43,9374.49
764.82,9297.70
765.22,9225.63
765.62,9159.30
766.02,9099.57
766.41,9047.01
766.81,9001.97
767.21,8964.50
767.61,8934.41
768.00,8911.28
768.40,8894.49
768.80,8883.25
769.20,8876.67
769.59,8873.73
769.99,8873.34
770.39,8874.39
770.79,8875.71
771.18,8876.17
771.58,8874.63
771.98,8870.08
772.37,8861.58
772.77,8848.36
773.17,8829.82
773.56,8805.58
773.96,8775.47
774.36,8739.56
774.75,8698.13
775.15,8651.67
775.55,8600.84
775.94,8546.44
776.34,8489.38
776.73,8430.66
777.13,8371.29
777.53,8312.31
777.92,8254.73
778.32,8199.54
778.72,8147.65
779.11,8099.90
779.51,8057.06
779.90,8019.76
780.30,7988.53
780.69,7963.73
781.09,7945.58
781.49,7934.09
781.88,7929.10
782.28,7930.24
782.67,7936.97
783.07,7948.57
783.46,7964.18
783.86,7982.84
784.25,8003.52
784.65,8025.17
785.04,8046.73
785.44,8067.19
785.83,8085.60
786.23,8101.09
786.62,8112.89
787.02,8120.33
787.41,8122.85
787.81,8119.98
788.20,8111.37
788.60,8096.77
788.99,8076.03
789.39,8049.08
789.78,8015.99
790.18,7976.93
790.57,7932.19
790.97,7882.24
791.36,7827.71
791.75,7769.40
792.15,7708.32
792.54,7645.65
792.94,7582.71
793.33,7520.92
793.72,7461.73
794.12,7406.52
794.51,7356.56
794.91,7312.87
795.30,7276.23
795.69,7247.05
796.09,7225.45
796.48,7211.18
796.87,7203.71
797.27,7202.29
797.66,7205.99
798.05,7213.79
798.45,7224.64
798.84,7237.53
799.23,7251.52
799.63,7265.77
800.02,7279.51
800.41,7292.07
800.81,7302.82
801.20,7311.19
801.59,7316.59
801.99,7318.46
802.38,7316.26
802.77,7309.46
803.16,7297.63
803.56,7280.43
803.95,7257.66
804.34,7229.26
804.73,7195.36
805.13,7156.24
805.52,7112.32
805.91,7064.16
806.30,7012.37
806.69,6957.66
807.09,6900.77
807.48,6842.51
807.87,6783.70
808.26,6725.21
808.66,6667.93
809.05,6612.75
809.44,6560.55
809.83,6512.14
810.22,6468.23
810.61,6429.39
811.01,6396.00
811.40,6368.28
811.79,6346.23
812.18,6329.70
812.57,6318.38
812.96,6311.87
813.35,6309.70
813.75,6311.37
814.14,6316.34
814.53,6324.06
814.92,6333.94
815.31,6345.36
815.70,6357.60
816.09,6369.93
816.48,6381.52
816.87,6391.55
817.26,6399.18
817.65,6403.64
818.04,6404.25
818.44,6400.44
818.83,6391.80
819.22,6378.05
819.61,6359.07
820.00,6334.85
820.39,6305.52
820.78,6271.28
821.17,6232.44
821.56,6189.41
821.95,6142.67
822.34,6092.81
822.73,6040.50
823.12,5986.49
823.51,5931.58
823.90,5876.58
824.29,5822.30
824.68,5769.52
825.07,5718.98
825.46,5671.33
825.85,5627.18
826.24,5587.06
826.62,5551.45
827.01,5520.76
827.40,5495.35
827.79,5475.47
828.18,5461.30
828.57,5452.88
828.96,5450.10
829.35,5452.70
829.74,5460.24
830.13,5472.16
830.52,5487.74
830.90,5506.16
831.29,5526.58
831.68,5548.10
832.07,5569.86
832.46,5591.04
832.85,5610.89
833.24,5628.75
833.62,5644.01
834.01,5656.17
834.40,5664.77
834.79,5669.46
835.18,5669.96
835.57,5666.09
835.95,5657.75
836.34,5644.97
836.73,5627.89
837.12,5606.74
837.51,5581.85
837.89,5553.65
838.28,5522.58
838.67,5489.14
839.06,5453.86
839.44,5417.26
839.83,5379.88
840.22,5342.26
840.61,5304.96
840.99,5268.59
841.38,5233.73
841.77,5201.01
842.16,5171.03
842.54,5144.35
842.93,5121.48
843.32,5102.82
843.70,5088.64
844.09,5079.09
844.48,5074.13
844.86,5073.60
845.25,5077.20
845.64,5084.53
846.02,5095.11
846.41,5108.41
846.80,5123.87
847.18,5140.96
847.57,5159.14
847.96,5177.88
848.34,5196.68
848.73,5215.02
849.12,5232.43
849.50,5248.43
849.89,5262.57
850.27,5274.45
850.66,5283.71
851.05,5290.11
851.43,5293.47
851.82,5293.76
852.20,5291.02
852.59,5285.42
852.97,5277.18
853.36,5266.59
853.75,5253.93
854.13,5239.52
854.52,5223.62
854.90,5206.48
855.29,5188.31
855.67,5169.30
856.06,5149.63
856.44,5129.48
856.83,5109.02
857.21,5088.45
857.60,5068.01
857.98,5047.94
858.37,5028.48
858.75,5009.92
859.14,4992.51
859.52,4976.52
859.91,4962.18
860.29,4949.74
860.68,4939.39
861.06,4931.33
861.44,4925.72
861.83,4922.69
862.21,4922.32
862.60,4924.61
862.98,4929.51
863.37,4936.85
863.75,4946.35
864.13,4957.63
864.52,4970.21
864.90,4983.54
865.29,4997.03
865.67,5010.10
866.05,5022.17
866.44,5032.77
866.82,5041.52
867.20,5048.14
867.59,5052.47
867.97,5054.46
868.35,5054.14
868.74,5051.64
869.12,5047.12
869.50,5040.80
869.89,5032.89
870.27,5023.63
870.65,5013.24
871.04,5001.90
871.42,4989.79
871.80,4977.02
872.19,4963.67
872.57,4949.77
872.95,4935.31
873.33,4920.26
873.72,4904.57
874.10,4888.25
874.48,4871.33
874.86,4853.92
875.25,4836.25
875.63,4818.61
876.01,4801.42
876.39,4785.17
876.77,4770.41
877.16,4757.71
877.54,4747.60
877.92,4740.58
878.30,4737.08
878.68,4737.42
879.07,4741.82
879.45,4750.42
879.83,4763.26
880.21,4780.34
880.59,4801.58
880.97,4826.87
881.36,4856.09
881.74,4889.04
882.12,4925.52
882.50,4965.28
882.88,5008.01
883.26,5053.35
883.64,5100.90
884.02,5150.20
884.41,5200.76
884.79,5252.09
885.17,5303.67
885.55,5355.02
885.93,5405.67
886.31,5455.22
886.69,5503.30
887.07,5549.59
887.45,5593.83
887.83,5635.80
888.21,5675.31
888.59,5712.17
888.97,5746.21
889.35,5777.24
889.73,5805.05
890.11,5829.39
890.49,5849.96
890.87,5866.46
891.25,5878.53
891.63,5885.85
892.01,5888.08
892.39,5884.96
892.77,5876.31
893.15,5862.05
893.53,5842.23
893.91,5817.02
894.29,5786.73
894.67,5751.77
895.05,5712.63
895.43,5669.86
895.81,5624.04
896.19,5575.71
896.57,5525.44
896.95,5473.72
897.32,5421.02
897.70,5367.76
898.08,5314.33
898.46,5261.05
898.84,5208.20
899.22,5156.05
899.60,5104.81
899.98,5054.64
900.35,5005.70
900.73,4958.11
901.11,4911.97
901.49,4867.38
901.87,4824.39
902.25,4783.04
902.63,4743.34
903.00,4705.26
903.38,4668.73
903.76,4633.63
904.14,4599.83
904.52,4567.14
904.89,4535.38
905.27,4504.38
905.65,4473.97
906.03,4444.01
906.40,4414.39
906.78,4385.04
907.16,4355.91
907.54,4326.93
907.91,4298.08
908.29,4269.26
908.67,4240.38
909.05,4211.31
909.42,4181.88
909.80,4151.94
910.18,4121.29
910.55,4089.81
910.93,4057.41
911.31,4024.06
911.68,3989.85
912.06,3954.92
912.44,3919.51
912.82,3883.91
913.19,3848.44
913.57,3813.45
913.94,3779.23
914.32,3746.04
914.70,3714.07
915.07,3683.44
915.45,3654.19
915.83,3626.32
916.20,3599.76
916.58,3574.46
916.95,3550.33
917.33,3527.32
917.71,3505.41
918.08,3484.57
918.46,3464.84
918.83,3446.23
919.21,3428.78
919.58,3412.50
919.96,3397.37
920.34,3383.35
920.71,3370.36
921.09,3358.27
921.46,3346.92
921.84,3336.15
922.21,3325.77
922.59,3315.61
922.96,3305.55
923.34,3295.47
923.71,3285.31
924.09,3275.04
924.46,3264.68
924.84,3254.24
925.21,3243.76
925.59,3233.25
925.96,3222.71
926.34,3212.10
926.71,3201.35
927.08,3190.38
927.46,3179.10
927.83,3167.43
928.21,3155.30
928.58,3142.69
928.96,3129.61
929.33,3116.10
929.70,3102.23
930.08,3088.08
930.45,3073.73
930.83,3059.21
931.20,3044.55
931.57,3029.73
931.95,3014.69
932.32,2999.35
932.69,2983.62
933.07,2967.42
933.44,2950.70
933.81,2933.42
934.19,2915.62
934.56,2897.36
934.93,2878.76
935.31,2859.97
935.68,2841.15
936.05,2822.45
936.43,2803.98
936.80,2785.83
937.17,2768.02
937.54,2750.53
937.92,2733.28
938.29,2716.20
938.66,2699.19
939.03,2682.19
939.41,2665.16
939.78,2648.14
940.15,2631.17
940.52,2614.37
940.90,2597.84
941.27,2581.69
941.64,2566.01
942.01,2550.86
942.38,2536.25
942.76,2522.16
943.13,2508.56
943.50,2495.39
943.87,2482.63
944.24,2470.23
944.61,2458.20
944.99,2446.55
945.36,2435.28
945.73,2424.39
946.10,2413.88
946.47,2403.72
946.84,2393.86
947.21,2384.26
947.59,2374.84
947.96,2365.58
948.33,2356.44
948.70,2347.41
949.07,2338.48
949.44,2329.66
949.81,2320.96
950.18,2312.34
950.55,2303.76
950.92,2295.15
951.29,2286.38
951.66,2277.34
952.03,2267.87
952.41,2257.84
952.78,2247.11
953.15,2235.60
953.52,2223.25
953.89,2210.09
954.26,2196.18
954.63,2181.64
955.00,2166.64
955.37,2151.39
955.74,2136.10
956.11,2121.00
956.48,2106.28
956.84,2092.11
957.21,2078.60
957.58,2065.78
957.95,2053.62
958.32,2042.02
958.69,2030.82
959.06,2019.83
959.43,2008.82
959.80,1997.57
960.17,1985.91
960.54,1973.72
960.91,1960.95
961.28,1947.62
961.64,1933.83
962.01,1919.75
962.38,1905.57
962.75,1891.47
963.12,1877.62
963.49,1864.16
963.86,1851.15
964.22,1838.62
964.59,1826.54
964.96,1814.84
965.33,1803.43
965.70,1792.24
966.07,1781.17
966.43,1770.17
966.80,1759.19
967.17,1748.20
967.54,1737.21
967.91,1726.25
968.27,1715.33
968.64,1704.53
969.01,1693.89
969.38,1683.47
969.74,1673.32
970.11,1663.47
970.48,1653.89
970.85,1644.57
971.21,1635.44
971.58,1626.40
971.95,1617.38
972.31,1608.27
972.68,1599.04
973.05,1589.65
973.42,1580.15
973.78,1570.61
974.15,1561.14
974.52,1551.87
974.88,1542.95
975.25,1534.48
975.62,1526.56
975.98,1519.19
976.35,1512.36
976.72,1505.98
977.08,1499.89
977.45,1493.94
977.81,1487.93
978.18,1481.71
978.55,1475.14
978.91,1468.14
979.28,1460.69
979.64,1452.84
980.01,1444.66
980.38,1436.28
980.74,1427.83
981.11,1419.43
981.47,1411.15
981.84,1403.05
982.20,1395.11
982.57,1387.31
982.93,1379.56
983.30,1371.79
983.66,1363.91
984.03,1355.85
984.39,1347.59
984.76,1339.13
985.12,1330.50
985.49,1321.77
985.85,1313.04
986.22,1304.40
986.58,1295.96
986.95,1287.79
987.31,1279.96
987.68,1272.50
988.04,1265.42
988.41,1258.67
988.77,1252.22
989.13,1245.99
989.50,1239.89
989.86,1233.85
990.23,1227.77
990.59,1221.58
990.96,1215.21
991.32,1208.64
991.68,1201.81
992.05,1194.73
992.41,1187.41
992.77,1179.86
993.14,1172.15
993.50,1164.32
993.86,1156.47
994.23,1148.68
994.59,1141.05
994.95,1133.67
995.32,1126.62
995.68,1119.95
996.04,1113.71
996.41,1107.87
996.77,1102.41
997.13,1097.24
997.50,1092.26
997.86,1087.33
998.22,1082.32
998.58,1077.08
998.95,1071.46
999.31,1065.37
999.67,1058.73
1000.03,1051.48
1000.40,1043.64
1000.76,1035.27
1001.12,1026.45
1001.48,1017.34
1001.84,1008.11
1002.21,998.95
1002.57,990.08
1002.93,981.70
1003.29,973.98
1003.65,967.07
1004.02,961.07
1004.38,955.99
1004.74,951.81
1005.10,948.43
1005.46,945.70
1005.82,943.46
1006.19,941.51
1006.55,939.66
1006.91,937.73
1007.27,935.57
1007.63,933.08
1007.99,930.18
1008.35,926.83
1008.71,923.02
1009.07,918.76
1009.43,914.08
1009.80,909.06
1010.16,903.75
1010.52,898.25
1010.88,892.64
1011.24,887.02
1011.60,881.46
1011.96,876.05
1012.32,870.82
1012.68,865.81
1013.04,861.03
1013.40,856.45
1013.76,852.07
1014.12,847.84
1014.48,843.74
1014.84,839.73
1015.20,835.80
1015.56,831.92
1015.92,828.09
1016.28,824.30
1016.64,820.57
1017.00,816.88
1017.36,813.26
1017.72,809.74
1018.07,806.32
1018.43,803.03
1018.79,799.91
1019.15,796.96
1019.51,794.19
1019.87,791.61
1020.23,789.19
1020.59,786.92
1020.95,784.74
1021.31,782.63
1021.66,780.52
1022.02,778.37
1022.38,776.16
1022.74,773.87
1023.10,771.47
1023.46,768.96
1023.81,766.34
1024.17,763.62
1024.53,760.78
1024.89,757.82
1025.25,754.67
1025.60,751.28
1025.96,747.61
1026.32,743.67
1026.68,739.52
1027.04,733.98
1027.39,728.12
1027.75,723.24
1028.11,719.54
1028.47,717.12
1028.82,671.14
1029.18,701.65
1029.54,739.77
1029.90,739.77
1030.25,739.77
