wavelength,counts
188.65,110.08
189.10,110.08
189.56,110.08
190.01,110.08
190.47,110.08
190.92,136.46
191.37,147.62
191.83,160.36
192.28,174.52
192.74,189.83
193.19,205.96
193.64,222.54
194.10,239.85
194.55,257.73
195.01,276.04
195.46,294.68
195.91,313.53
196.37,332.51
196.82,351.51
197.27,370.44
197.73,389.17
198.18,407.59
198.63,425.54
199.09,442.87
199.54,459.42
199.99,475.04
200.45,489.60
200.90,503.02
201.35,515.25
201.81,526.27
202.26,536.12
202.71,544.87
203.17,552.61
203.62,559.43
204.07,565.43
204.53,570.69
204.98,575.29
205.43,579.27
205.89,582.67
206.34,585.50
206.79,587.78
207.25,589.50
207.70,590.66
208.15,591.27
208.60,591.35
209.06,590.90
209.51,589.95
209.96,588.56
210.41,586.76
210.87,584.63
211.32,582.21
211.77,579.58
212.23,576.80
212.68,573.92
213.13,570.99
213.58,568.06
214.04,565.15
214.49,562.30
214.94,559.52
215.39,556.85
215.84,554.31
216.30,551.94
216.75,549.77
217.20,547.82
217.65,546.14
218.11,544.76
218.56,543.70
219.01,543.01
219.46,542.69
219.91,542.75
220.37,543.18
220.82,543.96
221.27,545.02
221.72,546.27
222.17,547.62
222.63,548.94
223.08,550.10
223.53,550.99
223.98,551.53
224.43,551.68
224.88,551.44
225.34,550.86
225.79,550.04
226.24,549.13
226.69,548.26
227.14,547.58
227.59,547.23
228.04,547.28
228.50,547.79
228.95,548.76
229.40,550.16
229.85,551.92
230.30,553.95
230.75,556.14
231.20,558.38
231.66,560.56
232.11,562.59
232.56,564.39
233.01,565.92
233.46,567.14
233.91,568.05
234.36,568.67
234.81,569.04
235.26,569.22
235.71,569.26
236.17,569.24
236.62,569.20
237.07,569.20
237.52,569.26
237.97,569.39
238.42,569.60
238.87,569.86
239.32,570.13
239.77,570.35
240.22,570.47
240.67,570.42
241.12,570.15
241.57,569.61
242.02,568.78
242.47,567.67
242.92,566.33
243.37,564.82
243.82,563.23
244.27,561.68
244.72,560.29
245.18,559.16
245.63,558.38
246.08,558.02
246.53,558.10
246.98,558.61
247.43,559.50
247.88,560.69
248.33,562.07
248.78,563.50
249.23,564.85
249.68,565.99
250.12,566.78
250.57,567.15
251.02,567.02
251.47,566.38
251.92,565.24
252.37,563.67
252.82,561.75
253.27,559.62
253.72,557.40
254.17,555.24
254.62,553.25
255.07,551.55
255.52,550.20
255.97,549.26
256.42,548.74
256.87,548.63
257.32,548.88
257.77,549.47
258.22,550.33
258.66,551.40
259.11,552.63
259.56,553.97
260.01,555.39
260.46,556.86
260.91,558.36
261.36,559.89
261.81,561.44
262.26,563.04
262.71,564.67
263.15,566.34
263.60,568.05
264.05,569.78
264.50,571.50
264.95,573.17
265.40,574.77
265.85,576.24
266.30,577.54
266.74,578.62
267.19,579.45
267.64,580.00
268.09,580.24
268.54,580.15
268.99,579.73
269.43,578.97
269.88,577.91
270.33,576.55
270.78,574.95
271.23,573.15
271.68,571.22
272.12,569.21
272.57,567.19
273.02,565.23
273.47,563.37
273.92,561.65
274.36,560.12
274.81,558.79
275.26,557.66
275.71,556.72
276.16,555.97
276.60,555.39
277.05,554.94
277.50,554.62
277.95,554.40
278.39,554.26
278.84,554.20
279.29,554.19
279.74,554.26
280.19,554.39
280.63,554.63
281.08,555.00
281.53,555.55
281.98,556.31
282.42,557.33
282.87,558.64
283.32,560.25
283.76,562.15
284.21,564.29
284.66,566.62
285.11,569.06
285.55,571.50
286.00,573.86
286.45,576.04
286.89,577.98
287.34,579.62
287.79,580.92
288.23,581.89
288.68,582.54
289.13,582.91
289.58,583.03
290.02,582.98
290.47,582.81
290.92,582.59
291.36,582.34
291.81,582.12
292.26,581.92
292.70,581.74
293.15,581.55
293.60,581.31
294.04,581.00
294.49,580.60
294.93,580.09
295.38,579.51
295.83,578.88
296.27,578.27
296.72,577.76
297.17,577.42
297.61,577.31
298.06,577.47
298.50,577.92
298.95,578.66
299.40,579.64
299.84,580.83
300.29,582.17
300.73,583.60
301.18,585.05
301.63,586.47
302.07,587.78
302.52,588.93
302.96,589.86
303.41,590.50
303.85,590.80
304.30,590.70
304.75,590.17
305.19,589.20
305.64,587.80
306.08,586.00
306.53,583.89
306.97,581.54
307.42,579.08
307.86,576.60
308.31,574.23
308.75,572.07
309.20,570.20
309.65,568.70
310.09,567.61
310.54,566.96
310.98,566.74
311.43,566.95
311.87,567.56
312.32,568.53
312.76,569.83
313.21,571.42
313.65,573.25
314.10,575.29
314.54,577.50
314.99,579.84
315.43,582.24
315.87,584.64
316.32,586.97
316.76,589.15
317.21,591.09
317.65,592.70
318.10,593.94
318.54,594.75
318.99,595.12
319.43,595.08
319.88,594.68
320.32,593.99
320.76,593.12
321.21,592.18
321.65,591.29
322.10,590.54
322.54,590.05
322.99,589.91
323.43,590.17
323.87,590.89
324.32,592.09
324.76,593.77
325.21,595.89
325.65,598.38
326.09,601.14
326.54,604.06
326.98,606.99
327.42,609.79
327.87,612.32
328.31,614.44
328.76,616.06
329.20,617.11
329.64,617.57
330.09,617.42
330.53,616.71
330.97,615.51
331.42,613.91
331.86,612.01
332.30,609.91
332.75,607.73
333.19,605.56
333.63,603.51
334.08,601.62
334.52,599.96
334.96,598.52
335.41,597.32
335.85,596.31
336.29,595.47
336.74,594.73
337.18,594.06
337.62,593.42
338.06,592.81
338.51,592.21
338.95,591.66
339.39,591.19
339.84,590.83
340.28,590.59
340.72,590.49
341.16,590.51
341.61,590.61
342.05,590.73
342.49,590.81
342.93,590.80
343.38,590.66
343.82,590.37
344.26,589.96
344.70,589.47
345.15,588.99
345.59,588.57
346.03,588.28
346.47,588.17
346.92,588.25
347.36,588.50
347.80,588.87
348.24,589.29
348.68,589.68
349.13,590.00
349.57,590.21
350.01,590.32
350.45,590.37
350.89,590.43
351.34,590.60
351.78,590.95
352.22,591.56
352.66,592.46
353.10,593.64
353.54,595.03
353.99,596.53
354.43,598.00
354.87,599.29
355.31,600.27
355.75,600.84
356.19,600.94
356.63,600.59
357.08,599.84
357.52,598.82
357.96,597.67
358.40,596.54
358.84,595.58
359.28,594.87
359.72,594.48
360.16,594.41
360.60,594.59
361.05,594.94
361.49,595.34
361.93,595.68
362.37,595.86
362.81,595.86
363.25,595.66
363.69,595.35
364.13,595.03
364.57,594.84
365.01,594.94
365.45,595.46
365.89,596.48
366.33,598.03
366.78,600.09
367.22,602.54
367.66,605.24
368.10,608.02
368.54,610.69
368.98,613.10
369.42,615.12
369.86,616.71
370.30,617.86
370.74,618.64
371.18,619.16
371.62,619.55
372.06,619.93
372.50,620.44
372.94,621.14
373.38,622.07
373.82,623.24
374.26,624.58
374.70,626.02
375.14,627.49
375.58,628.91
376.02,630.23
376.46,631.44
376.90,632.56
377.34,633.65
377.78,634.79
378.21,636.08
378.65,637.61
379.09,639.43
379.53,641.59
379.97,644.09
380.41,646.88
380.85,649.90
381.29,653.05
381.73,656.23
382.17,659.34
382.61,662.26
383.05,664.92
383.49,667.23
383.93,669.15
384.36,670.65
384.80,671.70
385.24,672.32
385.68,672.54
386.12,672.41
386.56,672.01
387.00,671.44
387.44,670.82
387.87,670.30
388.31,669.99
388.75,670.01
389.19,670.44
389.63,671.32
390.07,672.64
390.51,674.34
390.94,676.33
391.38,678.47
391.82,680.64
392.26,682.73
392.70,684.66
393.14,686.38
393.57,687.91
394.01,689.29
394.45,690.58
394.89,691.86
395.33,693.16
395.76,694.50
396.20,695.84
396.64,697.12
397.08,698.25
397.52,699.13
397.95,699.69
398.39,699.90
398.83,699.78
399.27,699.40
399.70,698.88
400.14,698.38
400.58,698.06
401.02,698.07
401.45,698.55
401.89,699.57
402.33,701.17
402.77,703.35
403.20,706.05
403.64,709.19
404.08,712.67
404.52,716.40
404.95,720.28
405.39,724.24
405.83,728.22
406.26,732.22
406.70,736.27
407.14,740.42
407.58,744.74
408.01,749.29
408.45,754.15
408.89,759.32
409.32,764.80
409.76,770.51
410.20,776.36
410.63,782.23
411.07,788.01
411.51,793.60
411.94,798.97
412.38,804.10
412.82,809.04
413.25,813.89
413.69,818.77
414.12,823.79
414.56,829.06
415.00,834.68
415.43,840.71
415.87,847.18
416.31,854.11
416.74,861.48
417.18,869.25
417.61,877.36
418.05,885.72
418.49,894.24
418.92,902.79
419.36,911.24
419.79,919.46
420.23,927.33
420.67,934.80
421.10,941.83
421.54,948.48
421.97,954.83
422.41,961.04
422.84,967.29
423.28,973.75
423.71,980.58
424.15,987.89
424.59,995.72
425.02,1004.05
425.46,1012.78
425.89,1021.78
426.33,1030.85
426.76,1039.83
427.20,1048.53
427.63,1056.83
428.07,1064.64
428.50,1071.95
428.94,1078.78
429.37,1085.22
429.81,1091.38
430.24,1097.40
430.68,1103.43
431.11,1109.61
431.55,1116.06
431.98,1122.90
432.42,1130.21
432.85,1138.05
433.28,1146.45
433.72,1155.42
434.15,1164.92
434.59,1174.91
435.02,1185.29
435.46,1195.95
435.89,1206.77
436.33,1217.60
436.76,1228.34
437.19,1238.87
437.63,1249.12
438.06,1259.06
438.50,1268.69
438.93,1278.04
439.37,1287.16
439.80,1296.08
440.23,1304.85
440.67,1313.47
441.10,1321.89
441.53,1330.03
441.97,1337.79
442.40,1345.03
442.84,1351.64
443.27,1357.53
443.70,1362.68
444.14,1367.13
444.57,1371.01
445.00,1374.51
445.44,1377.88
445.87,1381.36
446.30,1385.21
446.74,1389.64
447.17,1394.78
447.60,1400.70
448.04,1407.36
448.47,1414.68
448.90,1422.49
449.34,1430.62
449.77,1438.87
450.20,1447.08
450.64,1455.09
451.07,1462.81
451.50,1470.22
451.93,1477.31
452.37,1484.17
452.80,1490.89
453.23,1497.62
453.67,1504.53
454.10,1511.79
454.53,1519.61
454.96,1528.16
455.40,1537.61
455.83,1548.11
456.26,1559.75
456.69,1572.56
457.13,1586.50
457.56,1601.44
457.99,1617.16
458.42,1633.37
458.86,1649.69
459.29,1665.75
459.72,1681.15
460.15,1695.57
460.58,1708.75
461.02,1720.54
461.45,1730.92
461.88,1739.98
462.31,1747.89
462.74,1754.90
463.18,1761.28
463.61,1767.30
464.04,1773.20
464.47,1779.18
464.90,1785.39
465.33,1791.98
465.77,1799.08
466.20,1806.87
466.63,1815.56
467.06,1825.42
467.49,1836.78
467.92,1849.99
468.35,1865.38
468.78,1883.23
469.22,1903.71
469.65,1926.81
470.08,1952.39
470.51,1980.09
470.94,2009.43
471.37,2039.82
471.80,2070.61
472.23,2101.22
472.66,2131.14
473.10,2160.03
473.53,2187.67
473.96,2214.03
474.39,2239.17
474.82,2263.18
475.25,2286.18
475.68,2308.20
476.11,2329.22
476.54,2349.12
476.97,2367.76
477.40,2385.04
477.83,2400.94
478.26,2415.64
478.69,2429.54
479.12,2443.31
479.55,2457.81
479.98,2474.08
480.41,2493.21
480.84,2516.20
481.27,2543.87
481.70,2576.72
482.13,2614.85
482.56,2657.95
482.99,2705.32
483.42,2755.92
483.85,2808.51
484.28,2861.77
484.71,2914.44
485.14,2965.42
485.57,3013.86
486.00,3059.17
486.43,3100.99
486.86,3139.12
487.29,3173.45
487.72,3203.86
488.15,3230.13
488.58,3251.96
489.01,3268.97
489.44,3280.78
489.87,3287.13
490.30,3287.99
490.72,3283.65
491.15,3274.83
491.58,3262.68
492.01,3248.73
492.44,3234.77
492.87,3222.76
493.30,3214.56
493.73,3211.84
494.16,3215.85
494.59,3227.36
495.01,3246.55
495.44,3273.06
495.87,3306.05
496.30,3344.31
496.73,3386.45
497.16,3431.07
497.59,3476.91
498.01,3523.02
498.44,3568.80
498.87,3614.06
499.30,3658.95
499.73,3703.83
500.16,3749.15
500.58,3795.21
501.01,3842.05
501.44,3889.31
501.87,3936.15
502.30,3981.31
502.72,4023.18
503.15,4059.99
503.58,4090.03
504.01,4111.87
504.44,4124.60
504.86,4127.93
505.29,4122.32
505.72,4108.93
506.15,4089.50
506.57,4066.18
507.00,4041.29
507.43,4017.08
507.86,3995.46
508.28,3977.89
508.71,3965.20
509.14,3957.62
509.57,3954.82
509.99,3956.02
510.42,3960.20
510.85,3966.27
511.27,3973.26
511.70,3980.50
512.13,3987.75
512.56,3995.20
512.98,4003.55
513.41,4013.82
513.84,4027.35
514.26,4045.53
514.69,4069.65
515.12,4100.73
515.54,4139.30
515.97,4185.37
516.40,4238.29
516.82,4296.82
517.25,4359.19
517.68,4423.30
518.10,4486.85
518.53,4547.65
518.95,4603.72
519.38,4653.56
519.81,4696.22
520.23,4731.35
520.66,4759.17
521.09,4780.36
521.51,4795.89
521.94,4806.85
522.36,4814.20
522.79,4818.70
523.22,4820.72
523.64,4820.23
524.07,4816.84
524.49,4809.90
524.92,4798.65
525.34,4782.40
525.77,4760.68
526.20,4733.40
526.62,4700.95
527.05,4664.18
527.47,4624.40
527.90,4583.24
528.32,4542.59
528.75,4504.33
529.17,4470.28
529.60,4441.99
530.02,4420.67
530.45,4407.06
530.87,4401.46
531.30,4403.72
531.72,4413.21
532.15,4428.99
532.57,4449.80
533.00,4474.22
533.42,4500.78
533.85,4528.10
534.27,4554.98
534.70,4580.58
535.12,4604.48
535.55,4626.73
535.97,4647.89
536.40,4668.96
536.82,4691.25
537.25,4716.22
537.67,4745.25
538.09,4779.45
538.52,4819.45
538.94,4865.21
539.37,4915.97
539.79,4970.28
540.22,5026.03
540.64,5080.69
541.06,5131.51
541.49,5175.81
541.91,5211.25
542.34,5236.06
542.76,5249.23
543.18,5250.60
543.61,5240.88
544.03,5221.56
544.46,5194.70
544.88,5162.75
545.30,5128.23
545.73,5093.44
546.15,5060.22
546.57,5029.75
547.00,5002.44
547.42,4977.91
547.84,4955.10
548.27,4932.45
548.69,4908.11
549.11,4880.28
549.54,4847.39
549.96,4808.39
550.38,4762.86
550.81,4711.09
551.23,4654.09
551.65,4593.42
552.07,4531.14
552.50,4469.52
552.92,4410.94
553.34,4357.64
553.77,4311.65
554.19,4274.60
554.61,4247.74
555.03,4231.83
555.46,4227.16
555.88,4233.57
556.30,4250.44
556.72,4276.72
557.15,4311.02
557.57,4351.65
557.99,4396.69
558.41,4444.18
558.84,4492.20
559.26,4539.05
559.68,4583.42
560.10,4624.47
560.52,4661.99
560.95,4696.35
561.37,4728.54
561.79,4760.04
562.21,4792.65
562.63,4828.29
563.06,4868.79
563.48,4915.59
563.90,4969.62
564.32,5031.04
564.74,5099.24
565.16,5172.77
565.58,5249.42
566.01,5326.36
566.43,5400.36
566.85,5468.03
567.27,5526.13
567.69,5571.80
568.11,5602.86
568.53,5618.00
568.96,5616.89
569.38,5600.26
569.80,5569.81
570.22,5528.07
570.64,5478.17
571.06,5423.51
571.48,5367.45
571.90,5312.93
572.32,5262.24
572.74,5216.75
573.16,5176.84
573.58,5141.88
574.01,5110.36
574.43,5080.14
574.85,5048.71
575.27,5013.55
575.69,4972.41
576.11,4923.61
576.53,4866.20
576.95,4800.08
577.37,4726.00
577.79,4645.44
578.21,4560.49
578.63,4473.65
579.05,4387.59
579.47,4304.98
579.89,4228.30
580.31,4159.73
580.73,4101.03
581.15,4053.55
581.57,4018.20
581.99,3995.46
582.41,3985.44
582.83,3987.86
583.25,4002.15
583.67,4027.42
584.09,4062.49
584.51,4105.94
584.93,4156.13
585.34,4211.21
585.76,4269.29
586.18,4328.43
586.60,4386.85
587.02,4443.03
587.44,4495.86
587.86,4544.73
588.28,4589.65
588.70,4631.26
589.12,4670.80
589.54,4710.01
589.95,4751.01
590.37,4796.07
590.79,4847.41
591.21,4906.98
591.63,4976.26
592.05,5056.11
592.47,5146.66
592.89,5247.29
593.30,5356.64
593.72,5472.71
594.14,5593.03
594.56,5714.76
594.98,5834.93
595.40,5950.62
595.81,6059.15
596.23,6158.18
596.65,6245.89
597.07,6321.04
597.49,6383.02
597.90,6431.86
598.32,6468.20
598.74,6493.21
599.16,6508.52
599.58,6516.06
599.99,6517.94
600.41,6516.27
600.83,6512.98
601.25,6509.69
601.66,6507.60
602.08,6507.33
602.50,6508.94
602.92,6511.88
603.33,6515.12
603.75,6517.16
604.17,6516.27
604.59,6510.58
605.00,6498.32
605.42,6477.97
605.84,6448.43
606.25,6409.12
606.67,6360.11
607.09,6302.08
607.51,6236.33
607.92,6164.70
608.34,6089.45
608.76,6013.06
609.17,5938.08
609.59,5866.94
610.01,5801.79
610.42,5744.36
610.84,5695.90
611.26,5657.12
611.67,5628.20
612.09,5608.91
612.51,5598.63
612.92,5596.47
613.34,5601.43
613.75,5612.41
614.17,5628.31
614.59,5648.10
615.00,5670.82
615.42,5695.57
615.83,5721.54
616.25,5747.99
616.67,5774.26
617.08,5799.77
617.50,5824.05
617.91,5846.76
618.33,5867.72
618.75,5886.96
619.16,5904.67
619.58,5921.30
619.99,5937.47
620.41,5954.00
620.82,5971.85
621.24,5992.08
621.65,6015.79
622.07,6044.02
622.48,6077.73
622.90,6117.72
623.31,6164.52
623.73,6218.42
624.14,6279.37
624.56,6347.01
624.97,6420.63
625.39,6499.22
625.80,6581.51
626.22,6666.01
626.63,6751.12
627.05,6835.17
627.46,6916.57
627.88,6993.86
628.29,7065.81
628.71,7131.52
629.12,7190.45
629.54,7242.48
629.95,7287.86
630.37,7327.26
630.78,7361.62
631.19,7392.14
631.61,7420.17
632.02,7447.05
632.44,7474.09
632.85,7502.40
633.26,7532.85
633.68,7566.01
634.09,7602.10
634.51,7640.98
634.92,7682.21
635.33,7725.03
635.75,7768.50
636.16,7811.50
636.57,7852.84
636.99,7891.36
637.40,7925.93
637.82,7955.58
638.23,7979.46
638.64,7996.92
639.06,8007.50
639.47,8010.99
639.88,8007.38
640.30,7996.95
640.71,7980.21
641.12,7957.97
641.53,7931.30
641.95,7901.48
642.36,7869.95
642.77,7838.24
643.19,7807.87
643.60,7780.22
644.01,7756.49
644.42,7737.58
644.84,7724.06
645.25,7716.17
645.66,7713.82
646.08,7716.65
646.49,7724.09
646.90,7735.45
647.31,7749.98
647.73,7766.92
648.14,7785.60
648.55,7805.39
648.96,7825.77
649.37,7846.30
649.79,7866.57
650.20,7886.25
650.61,7905.03
651.02,7922.62
651.43,7938.80
651.85,7953.39
652.26,7966.31
652.67,7977.56
653.08,7987.27
653.49,7995.69
653.90,8003.17
654.32,8010.14
654.73,8017.12
655.14,8024.65
655.55,8033.27
655.96,8043.53
656.37,8055.92
656.78,8070.89
657.20,8088.82
657.61,8109.97
658.02,8134.50
658.43,8162.45
658.84,8193.70
659.25,8228.01
659.66,8264.96
660.07,8304.07
660.48,8344.74
660.90,8386.32
661.31,8428.18
661.72,8469.70
662.13,8510.32
662.54,8549.58
662.95,8587.09
663.36,8622.55
663.77,8655.76
664.18,8686.61
664.59,8715.06
665.00,8741.20
665.41,8765.20
665.82,8787.35
666.23,8808.06
666.64,8827.85
667.05,8847.35
667.46,8867.25
667.87,8888.28
668.28,8911.17
668.69,8936.60
669.10,8965.16
669.51,8997.34
669.92,9033.48
670.33,9073.78
670.74,9118.27
671.15,9166.86
671.56,9219.28
671.97,9275.13
672.38,9333.88
672.79,9394.90
673.20,9457.42
673.61,9520.61
674.02,9583.57
674.42,9645.37
674.83,9705.08
675.24,9761.82
675.65,9814.80
676.06,9863.37
676.47,9907.06
676.88,9945.60
677.29,9978.93
677.70,10007.20
678.11,10030.73
678.51,10049.98
678.92,10065.46
679.33,10077.74
679.74,10087.36
680.15,10094.79
680.56,10100.46
680.97,10104.72
681.37,10107.88
681.78,10110.20
682.19,10111.89
682.60,10113.16
683.01,10114.20
683.42,10115.16
683.82,10116.17
684.23,10117.32
684.64,10118.65
685.05,10120.16
685.45,10121.80
685.86,10123.43
686.27,10124.85
686.68,10125.77
687.09,10125.80
687.49,10124.44
687.90,10121.13
688.31,10115.25
688.72,10106.18
689.12,10093.38
689.53,10076.40
689.94,10055.01
690.35,10029.17
690.75,9999.10
691.16,9965.26
691.57,9928.30
691.97,9889.02
692.38,9848.35
692.79,9807.22
693.20,9766.59
693.60,9727.36
694.01,9690.38
694.42,9656.42
694.82,9626.15
695.23,9600.18
695.64,9578.95
696.04,9562.83
696.45,9551.98
696.86,9546.39
697.26,9545.87
697.67,9550.00
698.07,9558.16
698.48,9569.57
698.89,9583.33
699.29,9598.45
699.70,9613.96
700.11,9628.90
700.51,9642.45
700.92,9653.92
701.32,9662.80
701.73,9668.75
702.14,9671.61
702.54,9671.41
702.95,9668.28
703.35,9662.51
703.76,9654.46
704.16,9644.58
704.57,9633.35
704.97,9621.27
705.38,9608.86
705.79,9596.60
706.19,9584.92
706.60,9574.19
707.00,9564.70
707.41,9556.64
707.81,9550.12
708.22,9545.17
708.62,9541.82
709.03,9540.03
709.43,9539.83
709.84,9541.24
710.24,9544.36
710.65,9549.31
711.05,9556.26
711.46,9565.35
711.86,9576.73
712.27,9590.49
712.67,9606.63
713.07,9625.09
713.48,9645.72
713.88,9668.28
714.29,9692.45
714.69,9717.83
715.10,9744.01
715.50,9770.52
715.90,9796.88
716.31,9822.63
716.71,9847.36
717.12,9870.68
717.52,9892.31
717.92,9912.01
718.33,9929.62
718.73,9945.06
719.14,9958.27
719.54,9969.25
719.94,9978.04
720.35,9984.71
720.75,9989.39
721.15,9992.29
721.56,9993.71
721.96,9994.12
722.36,9994.12
722.77,9994.48
723.17,9996.12
723.57,10000.05
723.98,10007.31
724.38,10018.91
724.78,10035.73
725.19,10058.42
725.59,10087.38
725.99,10122.67
726.39,10164.02
726.80,10210.83
727.20,10262.24
727.60,10317.18
728.00,10374.42
728.41,10432.71
728.81,10490.80
729.21,10547.52
729.61,10601.83
730.02,10652.84
730.42,10699.82
730.82,10742.21
731.22,10779.60
731.63,10811.73
732.03,10838.44
732.43,10859.70
732.83,10875.57
733.23,10886.19
733.64,10891.76
734.04,10892.51
734.44,10888.73
734.84,10880.71
735.24,10868.73
735.64,10853.12
736.05,10834.19
736.45,10812.26
736.85,10787.69
737.25,10760.86
737.65,10732.21
738.05,10702.21
738.45,10671.36
738.86,10640.20
739.26,10609.25
739.66,10578.99
740.06,10549.84
740.46,10522.11
740.86,10496.00
741.26,10471.57
741.66,10448.72
742.06,10427.26
742.46,10406.86
742.87,10387.09
743.27,10367.51
743.67,10347.63
744.07,10326.96
744.47,10305.04
744.87,10281.47
745.27,10255.90
745.67,10228.03
746.07,10197.64
746.47,10164.54
746.87,10128.63
747.27,10089.86
747.67,10048.21
748.07,10003.77
748.47,9956.66
748.87,9907.07
749.27,9855.30
749.67,9801.68
750.07,9746.63
750.47,9690.61
750.87,9634.13
751.27,9577.70
751.67,9521.84
752.07,9467.02
752.47,9413.65
752.87,9362.09
753.27,9312.61
753.66,9265.40
754.06,9220.55
754.46,9178.08
754.86,9137.92
755.26,9099.93
755.66,9063.89
756.06,9029.51
756.46,8996.44
756.86,8964.30
757.26,8932.66
757.65,8901.11
758.05,8869.24
758.45,8836.66
758.85,8803.03
759.25,8768.04
759.65,8731.42
760.05,8692.87
760.44,8652.11
760.84,8608.81
761.24,8562.63
761.64,8513.19
762.04,8460.14
762.44,8403.18
762.83,8342.12
763.23,8276.91
763.63,8207.69
764.03,8134.80
764.43,8058.77
764.82,7980.29
765.22,7900.18
765.62,7819.31
766.02,7738.53
766.41,7658.65
766.81,7580.35
767.21,7504.18
767.61,7430.54
768.00,7359.68
768.40,7291.74
768.80,7226.76
769.20,7164.70
769.59,7105.50
769.99,7049.11
770.39,6995.45
770.79,6944.49
771.18,6896.21
771.58,6850.61
771.98,6807.68
772.37,6767.46
772.77,6729.94
773.17,6695.17
773.56,6663.14
773.96,6633.90
774.36,6607.45
774.75,6583.82
775.15,6563.00
775.55,6544.98
775.94,6529.73
776.34,6517.19
776.73,6507.30
777.13,6499.96
777.53,6495.09
777.92,6492.58
778.32,6492.33
778.72,6494.22
779.11,6498.11
779.51,6503.82
779.90,6511.10
780.30,6519.64
780.69,6529.02
781.09,6538.72
781.49,6548.14
781.88,6556.60
782.28,6563.35
782.67,6567.66
783.07,6568.83
783.46,6566.27
783.86,6559.52
784.25,6548.33
784.65,6532.64
785.04,6512.64
785.44,6488.76
785.83,6461.60
786.23,6431.95
786.62,6400.73
787.02,6368.91
787.41,6337.49
787.81,6307.47
788.20,6279.73
788.60,6255.13
788.99,6234.36
789.39,6218.05
789.78,6206.71
790.18,6200.74
790.57,6200.46
790.97,6206.11
791.36,6217.84
791.75,6235.71
792.15,6259.68
792.54,6289.59
792.94,6325.15
793.33,6365.92
793.72,6411.34
794.12,6460.67
794.51,6513.07
794.91,6567.58
795.30,6623.16
795.69,6678.74
796.09,6733.22
796.48,6785.56
796.87,6834.79
797.27,6880.03
797.66,6920.56
798.05,6955.77
798.45,6985.25
798.84,7008.71
799.23,7026.03
799.63,7037.22
800.02,7042.40
800.41,7041.80
800.81,7035.75
801.20,7024.65
801.59,7008.97
801.99,6989.28
802.38,6966.17
802.77,6940.33
803.16,6912.47
803.56,6883.30
803.95,6853.53
804.34,6823.84
804.73,6794.80
805.13,6766.90
805.52,6740.50
805.91,6715.87
806.30,6693.14
806.69,6672.38
807.09,6653.60
807.48,6636.75
807.87,6621.75
808.26,6608.54
808.66,6596.99
809.05,6586.98
809.44,6578.37
809.83,6570.97
810.22,6564.56
810.61,6558.91
811.01,6553.76
811.40,6548.82
811.79,6543.81
812.18,6538.45
812.57,6532.45
812.96,6525.49
813.35,6517.29
813.75,6507.56
814.14,6496.01
814.53,6482.42
814.92,6466.60
815.31,6448.42
815.70,6427.83
816.09,6404.82
816.48,6379.45
816.87,6351.76
817.26,6321.81
817.65,6289.62
818.04,6255.15
818.44,6218.33
818.83,6179.08
819.22,6137.27
819.61,6092.85
820.00,6045.80
820.39,5996.20
820.78,5944.23
821.17,5890.15
821.56,5834.33
821.95,5777.19
822.34,5719.19
822.73,5660.81
823.12,5602.53
823.51,5544.81
823.90,5488.10
824.29,5432.83
824.68,5379.40
825.07,5328.19
825.46,5279.56
825.85,5233.83
826.24,5191.31
826.62,5152.21
827.01,5116.71
827.40,5084.91
827.79,5056.81
828.18,5032.34
828.57,5011.35
828.96,4993.60
829.35,4978.79
829.74,4966.54
830.13,4956.48
830.52,4948.18
830.90,4941.23
831.29,4935.26
831.68,4929.93
832.07,4924.97
832.46,4920.15
832.85,4915.33
833.24,4910.36
833.62,4905.16
834.01,4899.60
834.40,4893.54
834.79,4886.77
835.18,4879.06
835.57,4870.10
835.95,4859.55
836.34,4847.08
836.73,4832.38
837.12,4815.21
837.51,4795.42
837.89,4772.99
838.28,4748.01
838.67,4720.75
839.06,4691.56
839.44,4660.93
839.83,4629.45
840.22,4597.71
840.61,4566.36
840.99,4535.98
841.38,4507.13
841.77,4480.26
842.16,4455.75
842.54,4433.86
842.93,4414.78
843.32,4398.60
843.70,4385.37
844.09,4375.06
844.48,4367.64
844.86,4363.03
845.25,4361.16
845.64,4361.90
846.02,4365.13
846.41,4370.68
846.80,4378.39
847.18,4388.02
847.57,4399.34
847.96,4412.08
848.34,4425.92
848.73,4440.54
849.12,4455.56
849.50,4470.60
849.89,4485.28
850.27,4499.21
850.66,4512.06
851.05,4523.59
851.43,4533.62
851.82,4542.12
852.20,4549.17
852.59,4554.96
852.97,4559.78
853.36,4563.98
853.75,4567.90
854.13,4571.87
854.52,4576.11
854.90,4580.78
855.29,4585.91
855.67,4591.42
856.06,4597.15
856.44,4602.89
856.83,4608.41
857.21,4613.50
857.60,4618.01
857.98,4621.81
858.37,4624.86
858.75,4627.17
859.14,4628.78
859.52,4629.76
859.91,4630.17
860.29,4630.07
860.68,4629.49
861.06,4628.45
861.44,4626.97
861.83,4625.09
862.21,4622.85
862.60,4620.33
862.98,4617.63
863.37,4614.89
863.75,4612.26
864.13,4609.91
864.52,4607.99
864.90,4606.65
865.29,4606.03
865.67,4606.24
866.05,4607.37
866.44,4609.51
866.82,4612.70
867.20,4616.97
867.59,4622.32
867.97,4628.67
868.35,4635.90
868.74,4643.82
869.12,4652.18
869.50,4660.70
869.89,4669.04
870.27,4676.87
870.65,4683.89
871.04,4689.82
871.42,4694.46
871.80,4697.71
872.19,4699.51
872.57,4699.95
872.95,4699.18
873.33,4697.45
873.72,4695.05
874.10,4692.38
874.48,4689.82
874.86,4687.77
875.25,4686.63
875.63,4686.69
876.01,4688.20
876.39,4691.28
876.77,4695.93
877.16,4702.08
877.54,4709.53
877.92,4718.07
878.30,4727.47
878.68,4737.53
879.07,4748.12
879.45,4759.22
879.83,4770.89
880.21,4783.26
880.59,4796.53
880.97,4810.89
881.36,4826.51
881.74,4843.48
882.12,4861.80
882.50,4881.39
882.88,4902.06
883.26,4923.62
883.64,4945.85
884.02,4968.60
884.41,4991.77
884.79,5015.38
885.17,5039.54
885.55,5064.41
885.93,5090.21
886.31,5117.12
886.69,5145.26
887.07,5174.65
887.45,5205.20
887.83,5236.69
888.21,5268.80
888.59,5301.16
888.97,5333.35
889.35,5364.98
889.73,5395.66
890.11,5425.09
890.49,5452.98
890.87,5479.09
891.25,5503.19
891.63,5525.06
892.01,5544.42
892.39,5560.97
892.77,5574.40
893.15,5584.36
893.53,5590.53
893.91,5592.61
894.29,5590.39
894.67,5583.74
895.05,5572.67
895.43,5557.25
895.81,5537.72
896.19,5514.35
896.57,5487.48
896.95,5457.50
897.32,5424.75
897.70,5389.56
898.08,5352.20
898.46,5312.87
898.84,5271.74
899.22,5228.93
899.60,5184.56
899.98,5138.75
900.35,5091.65
900.73,5043.46
901.11,4994.43
901.49,4944.84
901.87,4895.01
902.25,4845.24
902.63,4795.82
903.00,4747.01
903.38,4698.98
903.76,4651.81
904.14,4605.51
904.52,4560.00
904.89,4515.11
905.27,4470.62
905.65,4426.29
906.03,4381.89
906.40,4337.21
906.78,4292.16
907.16,4246.73
907.54,4201.03
907.91,4155.29
908.29,4109.82
908.67,4065.02
909.05,4021.30
909.42,3979.06
909.80,3938.64
910.18,3900.29
910.55,3864.16
910.93,3830.29
911.31,3798.64
911.68,3769.13
912.06,3741.61
912.44,3715.96
912.82,3692.07
913.19,3669.88
913.57,3649.35
913.94,3630.47
914.32,3613.24
914.70,3597.65
915.07,3583.62
915.45,3571.06
915.83,3559.78
916.20,3549.53
916.58,3540.04
916.95,3530.97
917.33,3522.02
917.71,3512.90
918.08,3503.36
918.46,3493.26
918.83,3482.51
919.21,3471.12
919.58,3459.19
919.96,3446.85
920.34,3434.27
920.71,3421.59
921.09,3408.96
921.46,3396.45
921.84,3384.08
922.21,3371.79
922.59,3359.52
922.96,3347.12
923.34,3334.48
923.71,3321.49
924.09,3308.03
924.46,3294.05
924.84,3279.51
925.21,3264.41
925.59,3248.73
925.96,3232.50
926.34,3215.69
926.71,3198.30
927.08,3180.30
927.46,3161.66
927.83,3142.35
928.21,3122.37
928.58,3101.73
928.96,3080.51
929.33,3058.82
929.70,3036.79
930.08,3014.63
930.45,2992.54
930.83,2970.73
931.20,2949.40
931.57,2928.73
931.95,2908.84
932.32,2889.84
932.69,2871.75
933.07,2854.58
933.44,2838.30
933.81,2822.86
934.19,2808.21
934.56,2794.30
934.93,2781.09
935.31,2768.52
935.68,2756.56
936.05,2745.16
936.43,2734.27
936.80,2723.80
937.17,2713.67
937.54,2703.78
937.92,2693.99
938.29,2684.22
938.66,2674.34
939.03,2664.31
939.41,2654.07
939.78,2643.62
940.15,2632.98
940.52,2622.18
940.90,2611.27
941.27,2600.27
941.64,2589.21
942.01,2578.07
942.38,2566.83
942.76,2555.43
943.13,2543.82
943.50,2531.94
943.87,2519.77
944.24,2507.31
944.61,2494.60
944.99,2481.73
945.36,2468.82
945.73,2456.01
946.10,2443.44
946.47,2431.24
946.84,2419.49
947.21,2408.23
947.59,2397.42
947.96,2386.98
948.33,2376.74
948.70,2366.50
949.07,2356.04
949.44,2345.12
949.81,2333.52
950.18,2321.05
950.55,2307.58
950.92,2293.06
951.29,2277.49
951.66,2260.97
952.03,2243.68
952.41,2225.82
952.78,2207.65
953.15,2189.47
953.52,2171.51
953.89,2154.03
954.26,2137.18
954.63,2121.08
955.00,2105.75
955.37,2091.14
955.74,2077.15
956.11,2063.63
956.48,2050.41
956.84,2037.35
957.21,2024.31
957.58,2011.21
957.95,1998.02
958.32,1984.79
958.69,1971.57
959.06,1958.49
959.43,1945.65
959.80,1933.15
960.17,1921.05
960.54,1909.39
960.91,1898.13
961.28,1887.23
961.64,1876.58
962.01,1866.09
962.38,1855.66
962.75,1845.19
963.12,1834.63
963.49,1823.94
963.86,1813.14
964.22,1802.25
964.59,1791.35
964.96,1780.51
965.33,1769.86
965.70,1759.53
966.07,1749.63
966.43,1740.31
966.80,1731.66
967.17,1723.76
967.54,1716.60
967.91,1710.14
968.27,1704.28
968.64,1698.83
969.01,1693.59
969.38,1688.32
969.74,1682.78
970.11,1676.73
970.48,1670.00
970.85,1662.43
971.21,1653.95
971.58,1644.54
971.95,1634.22
972.31,1623.08
972.68,1611.23
973.05,1598.83
973.42,1586.04
973.78,1573.02
974.15,1559.95
974.52,1546.96
974.88,1534.19
975.25,1521.71
975.62,1509.60
975.98,1497.88
976.35,1486.56
976.72,1475.65
977.08,1465.13
977.45,1455.00
977.81,1445.26
978.18,1435.89
978.55,1426.91
978.91,1418.29
979.28,1410.00
979.64,1401.97
980.01,1394.12
980.38,1386.36
980.74,1378.58
981.11,1370.68
981.47,1362.55
981.84,1354.15
982.20,1345.46
982.57,1336.47
982.93,1327.25
983.30,1317.87
983.66,1308.43
984.03,1299.05
984.39,1289.84
984.76,1280.92
985.12,1272.36
985.49,1264.26
985.85,1256.66
986.22,1249.57
986.58,1243.00
986.95,1236.90
987.31,1231.23
987.68,1225.89
988.04,1220.80
988.41,1215.86
988.77,1210.98
989.13,1206.04
989.50,1200.98
989.86,1195.69
990.23,1190.12
990.59,1184.20
990.96,1177.86
991.32,1171.08
991.68,1163.82
992.05,1156.08
992.41,1147.87
992.77,1139.23
993.14,1130.26
993.50,1121.05
993.86,1111.75
994.23,1102.50
994.59,1093.46
994.95,1084.79
995.32,1076.60
995.68,1068.98
996.04,1061.96
996.41,1055.53
996.77,1049.61
997.13,1044.08
997.50,1038.81
997.86,1033.60
998.22,1028.31
998.58,1022.78
998.95,1016.91
999.31,1010.65
999.67,1003.97
1000.03,996.94
1000.40,989.64
1000.76,982.20
1001.12,974.78
1001.48,967.51
1001.84,960.55
1002.21,954.03
1002.57,948.05
1002.93,942.66
1003.29,937.92
1003.65,933.81
1004.02,930.32
1004.38,927.39
1004.74,924.92
1005.10,922.80
1005.46,920.91
1005.82,919.10
1006.19,917.23
1006.55,915.15
1006.91,912.75
1007.27,909.95
1007.63,906.70
1007.99,902.98
1008.35,898.85
1008.71,894.36
1009.07,889.63
1009.43,884.74
1009.80,879.82
1010.16,874.96
1010.52,870.26
1010.88,865.80
1011.24,861.64
1011.60,857.82
1011.96,854.37
1012.32,851.32
1012.68,848.65
1013.04,846.32
1013.40,844.26
1013.76,842.38
1014.12,840.54
1014.48,838.60
1014.84,836.42
1015.20,833.84
1015.56,830.76
1015.92,827.12
1016.28,822.90
1016.64,818.15
1017.00,812.94
1017.36,807.42
1017.72,801.73
1018.07,796.06
1018.43,790.55
1018.79,785.36
1019.15,780.60
1019.51,776.35
1019.87,772.66
1020.23,769.54
1020.59,766.96
1020.95,764.85
1021.31,763.12
1021.66,761.65
1022.02,760.31
1022.38,758.99
1022.74,757.56
1023.10,755.93
1023.46,754.03
1023.81,751.84
1024.17,749.37
1024.53,746.65
1024.89,743.74
1025.25,740.67
1025.60,737.49
1025.96,734.21
1026.32,730.89
1026.68,727.58
1027.04,723.72
1027.39,719.42
1027.75,715.88
1028.11,713.20
1028.47,711.44
1028.82,688.94
1029.18,688.94
1029.54,727.07
1029.90,727.07
1030.25,727.07
