wavelength,counts
188.65,0.00
189.10,0.00
189.56,0.00
190.01,0.00
190.47,0.00
190.92,24.36
191.37,35.16
191.83,47.84
192.28,62.30
192.74,78.37
193.19,95.74
193.64,114.05
194.10,133.43
194.55,153.63
195.01,174.41
195.46,195.54
195.91,216.81
196.37,238.04
196.82,259.08
197.27,279.80
197.73,300.10
198.18,319.84
198.63,338.92
199.09,357.21
199.54,374.57
199.99,390.88
200.45,406.03
200.90,419.92
201.35,432.49
201.81,443.73
202.26,453.62
202.71,462.19
203.17,469.47
203.62,475.53
204.07,480.41
204.53,484.17
204.98,486.89
205.43,488.66
205.89,489.60
206.34,489.85
206.79,489.58
207.25,488.98
207.70,488.23
208.15,487.49
208.60,486.90
209.06,486.54
209.51,486.41
209.96,486.46
210.41,486.60
210.87,486.66
211.32,486.50
211.77,485.96
212.23,484.94
212.68,483.36
213.13,481.26
213.58,478.70
214.04,475.85
214.49,472.88
214.94,470.03
215.39,467.51
215.84,465.52
216.30,464.22
216.75,463.70
217.20,463.98
217.65,465.00
218.11,466.65
218.56,468.75
219.01,471.10
219.46,473.47
219.91,475.69
220.37,477.58
220.82,479.04
221.27,480.02
221.72,480.54
222.17,480.64
222.63,480.41
223.08,479.95
223.53,479.37
223.98,478.75
224.43,478.16
224.88,477.66
225.34,477.29
225.79,477.06
226.24,476.99
226.69,477.08
227.14,477.32
227.59,477.70
228.04,478.17
228.50,478.70
228.95,479.21
229.40,479.64
229.85,479.92
230.30,479.99
230.75,479.79
231.20,479.30
231.66,478.52
232.11,477.48
232.56,476.22
233.01,474.83
233.46,473.42
233.91,472.10
234.36,470.98
234.81,470.18
235.26,469.76
235.71,469.77
236.17,470.21
236.62,471.05
237.07,472.21
237.52,473.59
237.97,475.08
238.42,476.57
238.87,477.98
239.32,479.22
239.77,480.28
240.22,481.15
240.67,481.85
241.12,482.43
241.57,482.92
242.02,483.36
242.47,483.79
242.92,484.22
243.37,484.63
243.82,485.01
244.27,485.31
244.72,485.51
245.18,485.58
245.63,485.48
246.08,485.22
246.53,484.82
246.98,484.32
247.43,483.74
247.88,483.15
248.33,482.60
248.78,482.11
249.23,481.71
249.68,481.43
250.12,481.25
250.57,481.18
251.02,481.19
251.47,481.28
251.92,481.43
252.37,481.63
252.82,481.88
253.27,482.20
253.72,482.58
254.17,483.06
254.62,483.64
255.07,484.34
255.52,485.16
255.97,486.09
256.42,487.11
256.87,488.16
257.32,489.17
257.77,490.08
258.22,490.78
258.66,491.20
259.11,491.25
259.56,490.89
260.01,490.10
260.46,488.92
260.91,487.39
261.36,485.64
261.81,483.76
262.26,481.91
262.71,480.20
263.15,478.72
263.60,477.53
264.05,476.66
264.50,476.06
264.95,475.68
265.40,475.45
265.85,475.30
266.30,475.17
266.74,475.05
267.19,474.96
267.64,474.97
268.09,475.17
268.54,475.65
268.99,476.51
269.43,477.79
269.88,479.51
270.33,481.64
270.78,484.08
271.23,486.72
271.68,489.44
272.12,492.08
272.57,494.54
273.02,496.73
273.47,498.58
273.92,500.06
274.36,501.15
274.81,501.85
275.26,502.16
275.71,502.06
276.16,501.54
276.60,500.60
277.05,499.24
277.50,497.48
277.95,495.38
278.39,493.01
278.84,490.49
279.29,487.94
279.74,485.53
280.19,483.39
280.63,481.64
281.08,480.38
281.53,479.66
281.98,479.48
282.42,479.81
282.87,480.55
283.32,481.62
283.76,482.87
284.21,484.21
284.66,485.52
285.11,486.73
285.55,487.77
286.00,488.62
286.45,489.27
286.89,489.71
287.34,489.96
287.79,490.03
288.23,489.94
288.68,489.67
289.13,489.25
289.58,488.67
290.02,487.96
290.47,487.13
290.92,486.23
291.36,485.32
291.81,484.47
292.26,483.76
292.70,483.28
293.15,483.12
293.60,483.36
294.04,484.04
294.49,485.19
294.93,486.81
295.38,488.87
295.83,491.30
296.27,494.00
296.72,496.87
297.17,499.78
297.61,502.59
298.06,505.19
298.50,507.46
298.95,509.30
299.40,510.66
299.84,511.49
300.29,511.82
300.73,511.68
301.18,511.17
301.63,510.40
302.07,509.51
302.52,508.65
302.96,507.94
303.41,507.48
303.85,507.33
304.30,507.50
304.75,507.93
305.19,508.54
305.64,509.20
306.08,509.79
306.53,510.17
306.97,510.25
307.42,509.96
307.86,509.30
308.31,508.30
308.75,507.07
309.20,505.72
309.65,504.40
310.09,503.25
310.54,502.40
310.98,501.94
311.43,501.92
311.87,502.33
312.32,503.12
312.76,504.18
313.21,505.39
313.65,506.62
314.10,507.73
314.54,508.61
314.99,509.18
315.43,509.40
315.87,509.25
316.32,508.75
316.76,507.96
317.21,506.92
317.65,505.69
318.10,504.35
318.54,502.93
318.99,501.49
319.43,500.07
319.88,498.69
320.32,497.40
320.76,496.22
321.21,495.18
321.65,494.30
322.10,493.60
322.54,493.09
322.99,492.75
323.43,492.57
323.87,492.50
324.32,492.51
324.76,492.54
325.21,492.54
325.65,492.49
326.09,492.35
326.54,492.13
326.98,491.85
327.42,491.55
327.87,491.30
328.31,491.15
328.76,491.16
329.20,491.37
329.64,491.82
330.09,492.52
330.53,493.46
330.97,494.60
331.42,495.91
331.86,497.35
332.30,498.86
332.75,500.41
333.19,501.95
333.63,503.47
334.08,504.94
334.52,506.35
334.96,507.68
335.41,508.92
335.85,510.07
336.29,511.10
336.74,512.03
337.18,512.83
337.62,513.51
338.06,514.07
338.51,514.51
338.95,514.85
339.39,515.06
339.84,515.17
340.28,515.14
340.72,514.96
341.16,514.61
341.61,514.08
342.05,513.36
342.49,512.47
342.93,511.44
343.38,510.32
343.82,509.20
344.26,508.16
344.70,507.31
345.15,506.73
345.59,506.49
346.03,506.61
346.47,507.09
346.92,507.89
347.36,508.90
347.80,510.02
348.24,511.11
348.68,512.05
349.13,512.75
349.57,513.12
350.01,513.15
350.45,512.86
350.89,512.30
351.34,511.55
351.78,510.70
352.22,509.84
352.66,509.03
353.10,508.32
353.54,507.71
353.99,507.17
354.43,506.67
354.87,506.16
355.31,505.60
355.75,504.96
356.19,504.27
356.63,503.55
357.08,502.89
357.52,502.37
357.96,502.09
358.40,502.13
358.84,502.57
359.28,503.43
359.72,504.72
360.16,506.39
360.60,508.40
361.05,510.65
361.49,513.07
361.93,515.59
362.37,518.16
362.81,520.73
363.25,523.29
363.69,525.82
364.13,528.29
364.57,530.67
365.01,532.91
365.45,534.91
365.89,536.59
366.33,537.84
366.78,538.57
367.22,538.69
367.66,538.20
368.10,537.10
368.54,535.48
368.98,533.46
369.42,531.18
369.86,528.83
370.30,526.56
370.74,524.50
371.18,522.77
371.62,521.40
372.06,520.41
372.50,519.77
372.94,519.43
373.38,519.33
373.82,519.42
374.26,519.67
374.70,520.07
375.14,520.66
375.58,521.47
376.02,522.55
376.46,523.98
376.90,525.78
377.34,527.99
377.78,530.59
378.21,533.53
378.65,536.74
379.09,540.09
379.53,543.48
379.97,546.75
380.41,549.80
380.85,552.50
381.29,554.79
381.73,556.64
382.17,558.07
382.61,559.13
383.05,559.91
383.49,560.52
383.93,561.07
384.36,561.68
384.80,562.42
385.24,563.34
385.68,564.45
386.12,565.70
386.56,567.03
387.00,568.37
387.44,569.63
387.87,570.73
388.31,571.63
388.75,572.32
389.19,572.81
389.63,573.18
390.07,573.50
390.51,573.88
390.94,574.43
391.38,575.26
391.82,576.43
392.26,578.00
392.70,579.96
393.14,582.28
393.57,584.85
394.01,587.59
394.45,590.34
394.89,593.00
395.33,595.43
395.76,597.56
396.20,599.34
396.64,600.77
397.08,601.88
397.52,602.76
397.95,603.51
398.39,604.25
398.83,605.10
399.27,606.15
399.70,607.49
400.14,609.18
400.58,611.24
401.02,613.67
401.45,616.45
401.89,619.57
402.33,622.98
402.77,626.65
403.20,630.54
403.64,634.60
404.08,638.77
404.52,642.98
404.95,647.16
405.39,651.24
405.83,655.15
406.26,658.87
406.70,662.37
407.14,665.70
407.58,668.90
408.01,672.05
408.45,675.23
408.89,678.53
409.32,682.00
409.76,685.69
410.20,689.59
410.63,693.70
411.07,697.99
411.51,702.45
411.94,707.07
412.38,711.84
412.82,716.76
413.25,721.86
413.69,727.16
414.12,732.67
414.56,738.40
415.00,744.35
415.43,750.51
415.87,756.88
416.31,763.45
416.74,770.21
417.18,777.14
417.61,784.25
418.05,791.51
418.49,798.90
418.92,806.40
419.36,813.95
419.79,821.51
420.23,829.00
420.67,836.36
421.10,843.51
421.54,850.40
421.97,856.98
422.41,863.20
422.84,869.07
423.28,874.58
423.71,879.79
424.15,884.75
424.59,889.54
425.02,894.26
425.46,899.02
425.89,903.94
426.33,909.11
426.76,914.63
427.20,920.58
427.63,927.02
428.07,933.98
428.50,941.47
428.94,949.48
429.37,957.97
429.81,966.87
430.24,976.10
430.68,985.56
431.11,995.13
431.55,1004.71
431.98,1014.17
432.42,1023.45
432.85,1032.46
433.28,1041.17
433.72,1049.56
434.15,1057.62
434.59,1065.38
435.02,1072.85
435.46,1080.05
435.89,1087.00
436.33,1093.73
436.76,1100.25
437.19,1106.59
437.63,1112.76
438.06,1118.78
438.50,1124.66
438.93,1130.41
439.37,1136.05
439.80,1141.57
440.23,1146.99
440.67,1152.31
441.10,1157.55
441.53,1162.76
441.97,1167.98
442.40,1173.27
442.84,1178.71
443.27,1184.35
443.70,1190.23
444.14,1196.38
444.57,1202.78
445.00,1209.41
445.44,1216.21
445.87,1223.13
446.30,1230.12
446.74,1237.17
447.17,1244.26
447.60,1251.44
448.04,1258.74
448.47,1266.21
448.90,1273.89
449.34,1281.78
449.77,1289.84
450.20,1298.01
450.64,1306.18
451.07,1314.26
451.50,1322.15
451.93,1329.80
452.37,1337.20
452.80,1344.40
453.23,1351.48
453.67,1358.55
454.10,1365.73
454.53,1373.12
454.96,1380.82
455.40,1388.89
455.83,1397.38
456.26,1406.34
456.69,1415.83
457.13,1425.93
457.56,1436.76
457.99,1448.44
458.42,1461.05
458.86,1474.66
459.29,1489.24
459.72,1504.68
460.15,1520.77
460.58,1537.19
461.02,1553.60
461.45,1569.63
461.88,1584.96
462.31,1599.34
462.74,1612.65
463.18,1624.91
463.61,1636.24
464.04,1646.89
464.47,1657.11
464.90,1667.21
465.33,1677.41
465.77,1687.92
466.20,1698.84
466.63,1710.23
467.06,1722.11
467.49,1734.48
467.92,1747.39
468.35,1760.94
468.78,1775.27
469.22,1790.56
469.65,1807.02
470.08,1824.82
470.51,1844.06
470.94,1864.78
471.37,1886.88
471.80,1910.19
472.23,1934.48
472.66,1959.49
473.10,1984.99
473.53,2010.82
473.96,2036.93
474.39,2063.32
474.82,2090.11
475.25,2117.41
475.68,2145.33
476.11,2173.90
476.54,2203.03
476.97,2232.53
477.40,2262.09
477.83,2291.33
478.26,2319.89
478.69,2347.48
479.12,2373.95
479.55,2399.33
479.98,2423.86
480.41,2447.94
480.84,2472.11
481.27,2496.90
481.70,2522.79
482.13,2550.12
482.56,2578.98
482.99,2609.25
483.42,2640.58
483.85,2672.46
484.28,2704.33
484.71,2735.69
485.14,2766.19
485.57,2795.70
486.00,2824.38
486.43,2852.61
486.86,2880.95
487.29,2910.01
487.72,2940.34
488.15,2972.28
488.58,3005.88
489.01,3040.84
489.44,3076.55
489.87,3112.16
490.30,3146.68
490.72,3179.19
491.15,3208.96
491.58,3235.59
492.01,3259.09
492.44,3279.86
492.87,3298.65
493.30,3316.42
493.73,3334.19
494.16,3352.81
494.59,3372.89
495.01,3394.63
495.44,3417.82
495.87,3441.85
496.30,3465.86
496.73,3488.87
497.16,3509.98
497.59,3528.51
498.01,3544.19
498.44,3557.18
498.87,3568.08
499.30,3577.87
499.73,3587.78
500.16,3599.08
500.58,3612.89
501.01,3630.01
501.44,3650.82
501.87,3675.16
502.30,3702.40
502.72,3731.48
503.15,3761.12
503.58,3789.96
504.01,3816.80
504.44,3840.76
504.86,3861.44
505.29,3878.95
505.72,3893.90
506.15,3907.30
506.57,3920.43
507.00,3934.57
507.43,3950.83
507.86,3969.96
508.28,3992.20
508.71,4017.24
509.14,4044.26
509.57,4072.05
509.99,4099.16
510.42,4124.14
510.85,4145.78
511.27,4163.25
511.70,4176.24
512.13,4185.01
512.56,4190.34
512.98,4193.41
513.41,4195.61
513.84,4198.38
514.26,4202.96
514.69,4210.28
515.12,4220.77
515.54,4234.42
515.97,4250.69
516.40,4268.71
516.82,4287.36
517.25,4305.46
517.68,4321.96
518.10,4336.07
518.53,4347.41
518.95,4356.05
519.38,4362.52
519.81,4367.74
520.23,4372.89
520.66,4379.25
521.09,4388.06
521.51,4400.28
521.94,4416.49
522.36,4436.79
522.79,4460.79
523.22,4487.61
523.64,4516.01
524.07,4544.53
524.49,4571.69
524.92,4596.17
525.34,4616.98
525.77,4633.59
526.20,4645.99
526.62,4654.73
527.05,4660.76
527.47,4665.40
527.90,4670.05
528.32,4676.11
528.75,4684.66
529.17,4696.42
529.60,4711.57
530.02,4729.76
530.45,4750.13
530.87,4771.42
531.30,4792.14
531.72,4810.74
532.15,4825.80
532.57,4836.24
533.00,4841.43
533.42,4841.26
533.85,4836.20
534.27,4827.21
534.70,4815.66
535.12,4803.17
535.55,4791.41
535.97,4781.93
536.40,4775.96
536.82,4774.30
537.25,4777.18
537.67,4784.31
538.09,4794.87
538.52,4807.64
538.94,4821.13
539.37,4833.80
539.79,4844.22
540.22,4851.26
540.64,4854.23
541.06,4852.94
541.49,4847.77
541.91,4839.59
542.34,4829.73
542.76,4819.76
543.18,4811.39
543.61,4806.24
544.03,4805.68
544.46,4810.65
544.88,4821.58
545.30,4838.27
545.73,4859.99
546.15,4885.45
546.57,4912.99
547.00,4940.72
547.42,4966.76
547.84,4989.40
548.27,5007.33
548.69,5019.76
549.11,5026.53
549.54,5028.14
549.96,5025.67
550.38,5020.67
550.81,5014.94
551.23,5010.38
551.65,5008.68
552.07,5011.17
552.50,5018.61
552.92,5031.10
553.34,5048.10
553.77,5068.41
554.19,5090.37
554.61,5112.01
555.03,5131.26
555.46,5146.19
555.88,5155.22
556.30,5157.28
556.72,5151.97
557.15,5139.53
557.57,5120.90
557.99,5097.61
558.41,5071.61
558.84,5045.10
559.26,5020.32
559.68,4999.31
560.10,4983.74
560.52,4974.72
560.95,4972.74
561.37,4977.61
561.79,4988.49
562.21,5004.03
562.63,5022.45
563.06,5041.80
563.48,5060.10
563.90,5075.56
564.32,5086.78
564.74,5092.81
565.16,5093.34
565.58,5088.65
566.01,5079.64
566.43,5067.72
566.85,5054.69
567.27,5042.55
567.69,5033.34
568.11,5028.92
568.53,5030.80
568.96,5039.98
569.38,5056.86
569.80,5081.15
570.22,5111.95
570.64,5147.78
571.06,5186.72
571.48,5226.56
571.90,5265.01
572.32,5299.85
572.74,5329.18
573.16,5351.48
573.58,5365.82
574.01,5371.88
574.43,5369.99
574.85,5361.10
575.27,5346.73
575.69,5328.78
576.11,5309.43
576.53,5290.93
576.95,5275.39
577.37,5264.59
577.79,5259.84
578.21,5261.84
578.63,5270.63
579.05,5285.59
579.47,5305.55
579.89,5328.83
580.31,5353.51
580.73,5377.51
581.15,5398.85
581.57,5415.80
581.99,5426.99
582.41,5431.56
582.83,5429.20
583.25,5420.15
583.67,5405.23
584.09,5385.72
584.51,5363.29
584.93,5339.88
585.34,5317.53
585.76,5298.20
586.18,5283.67
586.60,5275.33
587.02,5274.10
587.44,5280.32
587.86,5293.76
588.28,5313.62
588.70,5338.63
589.12,5367.14
589.54,5397.30
589.95,5427.20
590.37,5455.08
590.79,5479.43
591.21,5499.17
591.63,5513.66
592.05,5522.84
592.47,5527.10
592.89,5527.36
593.30,5524.90
593.72,5521.29
594.14,5518.25
594.56,5517.55
594.98,5520.84
595.40,5529.55
595.81,5544.80
596.23,5567.32
596.65,5597.41
597.07,5634.88
597.49,5679.14
597.90,5729.18
598.32,5783.66
598.74,5840.97
599.16,5899.33
599.58,5956.88
599.99,6011.79
600.41,6062.35
600.83,6107.07
601.25,6144.80
601.66,6174.75
602.08,6196.63
602.50,6210.60
602.92,6217.34
603.33,6218.01
603.75,6214.14
604.17,6207.53
604.59,6200.16
605.00,6193.97
605.42,6190.78
605.84,6192.08
606.25,6198.98
606.67,6212.09
607.09,6231.50
607.51,6256.79
607.92,6287.12
608.34,6321.22
608.76,6357.61
609.17,6394.64
609.59,6430.62
610.01,6464.00
610.42,6493.38
610.84,6517.67
611.26,6536.11
611.67,6548.34
612.09,6554.36
612.51,6554.60
612.92,6549.80
613.34,6541.04
613.75,6529.63
614.17,6517.02
614.59,6504.74
615.00,6494.27
615.42,6486.98
615.83,6483.96
616.25,6486.04
616.67,6493.65
617.08,6506.84
617.50,6525.27
617.91,6548.23
618.33,6574.71
618.75,6603.49
619.16,6633.21
619.58,6662.47
619.99,6689.93
620.41,6714.38
620.82,6734.82
621.24,6750.46
621.65,6760.84
622.07,6765.75
622.48,6765.35
622.90,6760.09
623.31,6750.72
623.73,6738.25
624.14,6723.91
624.56,6709.07
624.97,6695.18
625.39,6683.65
625.80,6675.78
626.22,6672.65
626.63,6675.09
627.05,6683.58
627.46,6698.23
627.88,6718.79
628.29,6744.67
628.71,6774.95
629.12,6808.50
629.54,6844.06
629.95,6880.30
630.37,6915.95
630.78,6949.85
631.19,6981.05
631.61,7008.83
632.02,7032.75
632.44,7052.60
632.85,7068.43
633.26,7080.48
633.68,7089.16
634.09,7095.00
634.51,7098.65
634.92,7100.81
635.33,7102.23
635.75,7103.70
636.16,7106.04
636.57,7110.04
636.99,7116.44
637.40,7125.92
637.82,7139.01
638.23,7156.07
638.64,7177.26
639.06,7202.49
639.47,7231.44
639.88,7263.59
640.30,7298.23
640.71,7334.50
641.12,7371.52
641.53,7408.36
641.95,7444.18
642.36,7478.20
642.77,7509.81
643.19,7538.53
643.60,7564.05
644.01,7586.26
644.42,7605.19
644.84,7621.06
645.25,7634.28
645.66,7645.38
646.08,7655.06
646.49,7664.13
646.90,7673.48
647.31,7684.02
647.73,7696.63
648.14,7712.09
648.55,7731.03
648.96,7753.88
649.37,7780.82
649.79,7811.80
650.20,7846.53
650.61,7884.52
651.02,7925.09
651.43,7967.47
651.85,8010.79
652.26,8054.16
652.67,8096.73
653.08,8137.68
653.49,8176.27
653.90,8211.90
654.32,8244.10
654.73,8272.57
655.14,8297.19
655.55,8318.06
655.96,8335.45
656.37,8349.84
656.78,8361.87
657.20,8372.28
657.61,8381.91
658.02,8391.58
658.43,8402.08
658.84,8414.06
659.25,8428.03
659.66,8444.30
660.07,8462.96
660.48,8483.88
660.90,8506.78
661.31,8531.21
661.72,8556.65
662.13,8582.52
662.54,8608.28
662.95,8633.43
663.36,8657.57
663.77,8680.37
664.18,8701.61
664.59,8721.16
665.00,8738.94
665.41,8754.92
665.82,8769.11
666.23,8781.53
666.64,8792.22
667.05,8801.24
667.46,8808.64
667.87,8814.54
668.28,8819.08
668.69,8822.43
669.10,8824.85
669.51,8826.63
669.92,8828.12
670.33,8829.70
670.74,8831.81
671.15,8834.85
671.56,8839.23
671.97,8845.32
672.38,8853.40
672.79,8863.66
673.20,8876.19
673.61,8890.91
674.02,8907.62
674.42,8925.96
674.83,8945.43
675.24,8965.45
675.65,8985.34
676.06,9004.44
676.47,9022.13
676.88,9037.87
677.29,9051.30
677.70,9062.20
678.11,9070.55
678.51,9076.52
678.92,9080.38
679.33,9082.52
679.74,9083.36
680.15,9083.33
680.56,9082.82
680.97,9082.15
681.37,9081.62
681.78,9081.45
682.19,9081.85
682.60,9083.02
683.01,9085.16
683.42,9088.50
683.82,9093.26
684.23,9099.64
684.64,9107.83
685.05,9117.93
685.45,9129.99
685.86,9143.93
686.27,9159.61
686.68,9176.78
687.09,9195.14
687.49,9214.35
687.90,9234.06
688.31,9253.95
688.72,9273.70
689.12,9293.04
689.53,9311.71
689.94,9329.46
690.35,9346.06
690.75,9361.26
691.16,9374.80
691.57,9386.48
691.97,9396.09
692.38,9403.53
692.79,9408.79
693.20,9411.98
693.60,9413.36
694.01,9413.31
694.42,9412.30
694.82,9410.89
695.23,9409.64
695.64,9409.09
696.04,9409.72
696.45,9411.89
696.86,9415.88
697.26,9421.83
697.67,9429.79
698.07,9439.72
698.48,9451.54
698.89,9465.12
699.29,9480.32
699.70,9496.98
700.11,9514.95
700.51,9534.05
700.92,9554.08
701.32,9574.79
701.73,9595.87
702.14,9616.97
702.54,9637.64
702.95,9657.44
703.35,9675.87
703.76,9692.45
704.16,9706.78
704.57,9718.52
704.97,9727.49
705.38,9733.63
705.79,9737.08
706.19,9738.12
706.60,9737.18
707.00,9734.81
707.41,9731.63
707.81,9728.30
708.22,9725.45
708.62,9723.69
709.03,9723.52
709.43,9725.38
709.84,9729.57
710.24,9736.30
710.65,9745.64
711.05,9757.58
711.46,9771.98
711.86,9788.59
712.27,9807.05
712.67,9826.90
713.07,9847.62
713.48,9868.62
713.88,9889.34
714.29,9909.22
714.69,9927.79
715.10,9944.67
715.50,9959.58
715.90,9972.37
716.31,9982.95
716.71,9991.33
717.12,9997.52
717.52,10001.54
717.92,10003.41
718.33,10003.11
718.73,10000.61
719.14,9995.86
719.54,9988.83
719.94,9979.55
720.35,9968.08
720.75,9954.56
721.15,9939.23
721.56,9922.39
721.96,9904.43
722.36,9885.80
722.77,9866.98
723.17,9848.48
723.57,9830.77
723.98,9814.30
724.38,9799.45
724.78,9786.51
725.19,9775.69
725.59,9767.10
725.99,9760.75
726.39,9756.58
726.80,9754.45
727.20,9754.18
727.60,9755.56
728.00,9758.33
728.41,9762.22
728.81,9766.94
729.21,9772.20
729.61,9777.64
730.02,9782.90
730.42,9787.56
730.82,9791.20
731.22,9793.35
731.63,9793.56
732.03,9791.39
732.43,9786.47
732.83,9778.48
733.23,9767.27
733.64,9752.81
734.04,9735.23
734.44,9714.84
734.84,9692.10
735.24,9667.60
735.64,9642.04
736.05,9616.15
736.45,9590.68
736.85,9566.33
737.25,9543.73
737.65,9523.37
738.05,9505.61
738.45,9490.66
738.86,9478.55
739.26,9469.19
739.66,9462.33
740.06,9457.62
740.46,9454.63
740.86,9452.91
741.26,9451.99
741.66,9451.44
742.06,9450.86
742.46,9449.94
742.87,9448.40
743.27,9446.04
743.67,9442.69
744.07,9438.20
744.47,9432.48
744.87,9425.44
745.27,9417.04
745.67,9407.26
746.07,9396.14
746.47,9383.79
746.87,9370.36
747.27,9356.07
747.67,9341.21
748.07,9326.09
748.47,9311.07
748.87,9296.52
749.27,9282.82
749.67,9270.31
750.07,9259.34
750.47,9250.16
750.87,9243.01
751.27,9238.03
751.67,9235.29
752.07,9234.80
752.47,9236.48
752.87,9240.16
753.27,9245.63
753.66,9252.62
754.06,9260.81
754.46,9269.88
754.86,9279.47
755.26,9289.22
755.66,9298.79
756.06,9307.85
756.46,9316.07
756.86,9323.15
757.26,9328.79
757.65,9332.71
758.05,9334.65
758.45,9334.36
758.85,9331.63
759.25,9326.29
759.65,9318.20
760.05,9307.29
760.44,9293.50
760.84,9276.83
761.24,9257.29
761.64,9234.90
762.04,9209.68
762.44,9181.65
762.83,9150.82
763.23,9117.23
763.63,9080.93
764.03,9041.97
764.43,9000.50
764.82,8956.68
765.22,8910.75
765.62,8863.03
766.02,8813.92
766.41,8763.88
766.81,8713.49
767.21,8663.37
767.61,8614.23
768.00,8566.78
768.40,8521.73
768.80,8479.73
769.20,8441.32
769.59,8406.88
769.99,8376.65
770.39,8350.65
770.79,8328.76
771.18,8310.70
771.58,8296.10
771.98,8284.52
772.37,8275.51
772.77,8268.61
773.17,8263.39
773.56,8259.45
773.96,8256.41
774.36,8253.89
774.75,8251.48
775.15,8248.77
775.55,8245.29
775.94,8240.58
776.34,8234.16
776.73,8225.54
777.13,8214.30
777.53,8200.08
777.92,8182.58
778.32,8161.62
778.72,8137.11
779.11,8109.07
779.51,8077.64
779.90,8043.02
780.30,8005.53
780.69,7965.55
781.09,7923.55
781.49,7880.06
781.88,7835.66
782.28,7790.96
782.67,7746.60
783.07,7703.17
783.46,7661.23
783.86,7621.24
784.25,7583.54
784.65,7548.36
785.04,7515.79
785.44,7485.81
785.83,7458.30
786.23,7433.13
786.62,7410.11
787.02,7389.10
787.41,7369.99
787.81,7352.68
788.20,7337.11
788.60,7323.21
788.99,7310.87
789.39,7299.93
789.78,7290.15
790.18,7281.23
790.57,7272.78
790.97,7264.40
791.36,7255.67
791.75,7246.19
792.15,7235.60
792.54,7223.60
792.94,7209.98
793.33,7194.55
793.72,7177.21
794.12,7157.86
794.51,7136.45
794.91,7112.94
795.30,7087.27
795.69,7059.43
796.09,7029.42
796.48,6997.26
796.87,6963.02
797.27,6926.80
797.66,6888.78
798.05,6849.18
798.45,6808.24
798.84,6766.29
799.23,6723.64
799.63,6680.65
800.02,6637.69
800.41,6595.12
800.81,6553.31
801.20,6512.61
801.59,6473.33
801.99,6435.78
802.38,6400.23
802.77,6366.88
803.16,6335.93
803.56,6307.52
803.95,6281.73
804.34,6258.61
804.73,6238.17
805.13,6220.36
805.52,6205.09
805.91,6192.22
806.30,6181.56
806.69,6172.87
807.09,6165.82
807.48,6160.07
807.87,6155.18
808.26,6150.69
808.66,6146.09
809.05,6140.84
809.44,6134.43
809.83,6126.35
810.22,6116.16
810.61,6103.50
811.01,6088.11
811.40,6069.88
811.79,6048.80
812.18,6024.98
812.57,5998.66
812.96,5970.14
813.35,5939.75
813.75,5907.85
814.14,5874.77
814.53,5840.81
814.92,5806.21
815.31,5771.15
815.70,5735.78
816.09,5700.22
816.48,5664.56
816.87,5628.91
817.26,5593.41
817.65,5558.21
818.04,5523.55
818.44,5489.66
818.83,5456.85
819.22,5425.46
819.61,5395.80
820.00,5368.20
820.39,5342.96
820.78,5320.28
821.17,5300.32
821.56,5283.13
821.95,5268.68
822.34,5256.86
822.73,5247.46
823.12,5240.26
823.51,5234.98
823.90,5231.34
824.29,5229.07
824.68,5227.88
825.07,5227.54
825.46,5227.81
825.85,5228.46
826.24,5229.27
826.62,5230.01
827.01,5230.45
827.40,5230.35
827.79,5229.46
828.18,5227.53
828.57,5224.34
828.96,5219.67
829.35,5213.34
829.74,5205.23
830.13,5195.26
830.52,5183.44
830.90,5169.83
831.29,5154.59
831.68,5137.90
832.07,5120.03
832.46,5101.22
832.85,5081.73
833.24,5061.78
833.62,5041.55
834.01,5021.14
834.40,5000.61
834.79,4979.99
835.18,4959.28
835.57,4938.48
835.95,4917.65
836.34,4896.89
836.73,4876.36
837.12,4856.29
837.51,4836.95
837.89,4818.60
838.28,4801.52
838.67,4785.96
839.06,4772.11
839.44,4760.09
839.83,4749.97
840.22,4741.76
840.61,4735.41
840.99,4730.85
841.38,4727.96
841.77,4726.60
842.16,4726.65
842.54,4727.95
842.93,4730.34
843.32,4733.68
843.70,4737.82
844.09,4742.63
844.48,4747.99
844.86,4753.78
845.25,4759.89
845.64,4766.22
846.02,4772.65
846.41,4779.05
846.80,4785.27
847.18,4791.14
847.57,4796.46
847.96,4801.01
848.34,4804.56
848.73,4806.90
849.12,4807.84
849.50,4807.22
849.89,4804.94
850.27,4800.94
850.66,4795.25
851.05,4787.92
851.43,4779.05
851.82,4768.77
852.20,4757.23
852.59,4744.59
852.97,4731.02
853.36,4716.67
853.75,4701.69
854.13,4686.20
854.52,4670.32
854.90,4654.14
855.29,4637.70
855.67,4621.06
856.06,4604.28
856.44,4587.40
856.83,4570.55
857.21,4553.87
857.60,4537.58
857.98,4521.95
858.37,4507.31
858.75,4493.98
859.14,4482.29
859.52,4472.49
859.91,4464.75
860.29,4459.12
860.68,4455.52
861.06,4453.73
861.44,4453.47
861.83,4454.38
862.21,4456.10
862.60,4458.33
862.98,4460.84
863.37,4463.50
863.75,4466.32
864.13,4469.40
864.52,4472.92
864.90,4477.08
865.29,4482.06
865.67,4488.00
866.05,4494.91
866.44,4502.72
866.82,4511.22
867.20,4520.08
867.59,4528.90
867.97,4537.23
868.35,4544.58
868.74,4550.49
869.12,4554.54
869.50,4556.38
869.89,4555.78
870.27,4552.57
870.65,4546.73
871.04,4538.35
871.42,4527.63
871.80,4514.86
872.19,4500.40
872.57,4484.66
872.95,4468.09
873.33,4451.10
873.72,4434.07
874.10,4417.34
874.48,4401.17
874.86,4385.78
875.25,4371.32
875.63,4357.90
876.01,4345.61
876.39,4334.51
876.77,4324.64
877.16,4316.03
877.54,4308.72
877.92,4302.74
878.30,4298.11
878.68,4294.88
879.07,4293.08
879.45,4292.81
879.83,4294.16
880.21,4297.31
880.59,4302.43
880.97,4309.74
881.36,4319.48
881.74,4331.86
882.12,4347.07
882.50,4365.20
882.88,4386.27
883.26,4410.20
883.64,4436.80
884.02,4465.78
884.41,4496.81
884.79,4529.52
885.17,4563.54
885.55,4598.55
885.93,4634.31
886.31,4670.62
886.69,4707.36
887.07,4744.46
887.45,4781.84
887.83,4819.45
888.21,4857.18
888.59,4894.88
888.97,4932.32
889.35,4969.22
889.73,5005.22
890.11,5039.92
890.49,5072.84
890.87,5103.50
891.25,5131.41
891.63,5156.04
892.01,5176.92
892.39,5193.58
892.77,5205.60
893.15,5212.66
893.53,5214.48
893.91,5210.90
894.29,5201.87
894.67,5187.43
895.05,5167.73
895.43,5143.02
895.81,5113.59
896.19,5079.81
896.57,5042.05
896.95,5000.68
897.32,4956.07
897.70,4908.53
898.08,4858.38
898.46,4805.93
898.84,4751.48
899.22,4695.39
899.60,4638.06
899.98,4579.98
900.35,4521.70
900.73,4463.84
901.11,4407.04
901.49,4351.96
901.87,4299.22
902.25,4249.35
902.63,4202.79
903.00,4159.84
903.38,4120.65
903.76,4085.24
904.14,4053.49
904.52,4025.17
904.89,3999.96
905.27,3977.44
905.65,3957.15
906.03,3938.60
906.40,3921.32
906.78,3904.81
907.16,3888.67
907.54,3872.52
907.91,3856.08
908.29,3839.17
908.67,3821.68
909.05,3803.60
909.42,3784.98
909.80,3765.90
910.18,3746.46
910.55,3726.74
910.93,3706.82
911.31,3686.70
911.68,3666.39
912.06,3645.84
912.44,3625.01
912.82,3603.88
913.19,3582.43
913.57,3560.71
913.94,3538.81
914.32,3516.83
914.70,3494.90
915.07,3473.16
915.45,3451.70
915.83,3430.57
916.20,3409.76
916.58,3389.20
916.95,3368.78
917.33,3348.34
917.71,3327.73
918.08,3306.83
918.46,3285.54
918.83,3263.85
919.21,3241.82
919.58,3219.60
919.96,3197.37
920.34,3175.39
920.71,3153.94
921.09,3133.29
921.46,3113.66
921.84,3095.25
922.21,3078.16
922.59,3062.44
922.96,3048.03
923.34,3034.80
923.71,3022.55
924.09,3011.05
924.46,3000.04
924.84,2989.27
925.21,2978.54
925.59,2967.68
925.96,2956.63
926.34,2945.39
926.71,2934.04
927.08,2922.71
927.46,2911.56
927.83,2900.75
928.21,2890.40
928.58,2880.58
928.96,2871.27
929.33,2862.43
929.70,2853.91
930.08,2845.56
930.45,2837.22
930.83,2828.75
931.20,2820.03
931.57,2811.01
931.95,2801.71
932.32,2792.14
932.69,2782.39
933.07,2772.51
933.44,2762.57
933.81,2752.57
934.19,2742.48
934.56,2732.21
934.93,2721.64
935.31,2710.60
935.68,2698.93
936.05,2686.50
936.43,2673.20
936.80,2659.00
937.17,2643.93
937.54,2628.10
937.92,2611.69
938.29,2594.93
938.66,2578.04
939.03,2561.26
939.41,2544.79
939.78,2528.76
940.15,2513.24
940.52,2498.21
940.90,2483.62
941.27,2469.34
941.64,2455.25
942.01,2441.23
942.38,2427.19
942.76,2413.10
943.13,2398.96
943.50,2384.86
943.87,2370.89
944.24,2357.18
944.61,2343.83
944.99,2330.92
945.36,2318.50
945.73,2306.55
946.10,2294.98
946.47,2283.70
946.84,2272.56
947.21,2261.42
947.59,2250.15
947.96,2238.66
948.33,2226.91
948.70,2214.91
949.07,2202.72
949.44,2190.42
949.81,2178.16
950.18,2166.07
950.55,2154.27
950.92,2142.88
951.29,2131.95
951.66,2121.52
952.03,2111.57
952.41,2102.02
952.78,2092.79
953.15,2083.75
953.52,2074.77
953.89,2065.71
954.26,2056.44
954.63,2046.83
955.00,2036.80
955.37,2026.25
955.74,2015.15
956.11,2003.47
956.48,1991.24
956.84,1978.51
957.21,1965.37
957.58,1951.94
957.95,1938.35
958.32,1924.76
958.69,1911.30
959.06,1898.09
959.43,1885.25
959.80,1872.83
960.17,1860.85
960.54,1849.33
960.91,1838.24
961.28,1827.55
961.64,1817.22
962.01,1807.23
962.38,1797.57
962.75,1788.21
963.12,1779.15
963.49,1770.38
963.86,1761.88
964.22,1753.58
964.59,1745.42
964.96,1737.31
965.33,1729.12
965.70,1720.74
966.07,1712.04
966.43,1702.93
966.80,1693.32
967.17,1683.20
967.54,1672.57
967.91,1661.49
968.27,1650.05
968.64,1638.37
969.01,1626.57
969.38,1614.78
969.74,1603.11
970.11,1591.65
970.48,1580.44
970.85,1569.52
971.21,1558.86
971.58,1548.41
971.95,1538.13
972.31,1527.94
972.68,1517.78
973.05,1507.60
973.42,1497.35
973.78,1487.04
974.15,1476.68
974.52,1466.31
974.88,1455.98
975.25,1445.74
975.62,1435.67
975.98,1425.79
976.35,1416.14
976.72,1406.74
977.08,1397.58
977.45,1388.64
977.81,1379.88
978.18,1371.26
978.55,1362.75
978.91,1354.32
979.28,1345.92
979.64,1337.53
980.01,1329.13
980.38,1320.67
980.74,1312.15
981.11,1303.53
981.47,1294.81
981.84,1285.98
982.20,1277.04
982.57,1268.04
982.93,1259.02
983.30,1250.03
983.66,1241.15
984.03,1232.44
984.39,1223.97
984.76,1215.78
985.12,1207.91
985.49,1200.34
985.85,1193.05
986.22,1186.01
986.58,1179.14
986.95,1172.39
987.31,1165.71
987.68,1159.06
988.04,1152.41
988.41,1145.78
988.77,1139.19
989.13,1132.70
989.50,1126.35
989.86,1120.19
990.23,1114.25
990.59,1108.52
990.96,1102.97
991.32,1097.54
991.68,1092.15
992.05,1086.70
992.41,1081.07
992.77,1075.18
993.14,1068.95
993.50,1062.34
993.86,1055.34
994.23,1048.01
994.59,1040.40
994.95,1032.63
995.32,1024.82
995.68,1017.10
996.04,1009.60
996.41,1002.41
996.77,995.61
997.13,989.21
997.50,983.20
997.86,977.53
998.22,972.09
998.58,966.78
998.95,961.49
999.31,956.10
999.67,950.55
1000.03,944.76
1000.40,938.71
1000.76,932.40
1001.12,925.85
1001.48,919.09
1001.84,912.15
1002.21,905.10
1002.57,897.98
1002.93,890.85
1003.29,883.76
1003.65,876.80
1004.02,870.01
1004.38,863.48
1004.74,857.24
1005.10,851.34
1005.46,845.79
1005.82,840.57
1006.19,835.65
1006.55,830.97
1006.91,826.46
1007.27,822.05
1007.63,817.67
1007.99,813.28
1008.35,808.84
1008.71,804.38
1009.07,799.91
1009.43,795.49
1009.80,791.21
1010.16,787.14
1010.52,783.36
1010.88,779.93
1011.24,776.89
1011.60,774.25
1011.96,771.96
1012.32,769.97
1012.68,768.20
1013.04,766.57
1013.40,764.99
1013.76,763.40
1014.12,761.76
1014.48,760.04
1014.84,758.23
1015.20,756.36
1015.56,754.41
1015.92,752.39
1016.28,750.29
1016.64,748.07
1017.00,745.69
1017.36,743.11
1017.72,740.27
1018.07,737.15
1018.43,733.74
1018.79,730.05
1019.15,726.12
1019.51,722.02
1019.87,717.81
1020.23,713.56
1020.59,709.37
1020.95,705.28
1021.31,701.35
1021.66,697.62
1022.02,694.08
1022.38,690.74
1022.74,687.57
1023.10,684.54
1023.46,681.58
1023.81,678.61
1024.17,675.57
1024.53,672.34
1024.89,668.85
1025.25,664.98
1025.60,660.66
1025.96,655.90
1026.32,650.74
1026.68,645.31
1027.04,638.12
1027.39,632.18
1027.75,626.84
1028.11,622.28
1028.47,618.65
1028.82,556.66
1029.18,653.34
1029.54,620.28
1029.90,620.28
1030.25,620.28
