wavelength,counts
188.65,64.02
189.10,64.02
189.56,64.02
190.01,64.02
190.47,64.02
190.92,94.21
191.37,106.79
191.83,121.04
192.28,136.72
192.74,153.50
193.19,171.03
193.64,188.89
194.10,207.46
194.55,226.65
195.01,246.37
195.46,266.57
195.91,287.17
196.37,308.12
196.82,329.31
197.27,350.62
197.73,371.89
198.18,392.95
198.63,413.62
199.09,433.71
199.54,453.03
199.99,471.41
200.45,488.72
200.90,504.83
201.35,519.66
201.81,533.14
202.26,545.22
202.71,555.88
203.17,565.10
203.62,572.89
204.07,579.25
204.53,584.23
204.98,587.87
205.43,590.25
205.89,591.49
206.34,591.71
206.79,591.07
207.25,589.75
207.70,587.92
208.15,585.75
208.60,583.40
209.06,580.97
209.51,578.56
209.96,576.23
210.41,574.01
210.87,571.88
211.32,569.87
211.77,567.95
212.23,566.13
212.68,564.44
213.13,562.89
213.58,561.55
214.04,560.46
214.49,559.67
214.94,559.24
215.39,559.20
215.84,559.55
216.30,560.28
216.75,561.35
217.20,562.67
217.65,564.13
218.11,565.60
218.56,566.94
219.01,568.00
219.46,568.67
219.91,568.87
220.37,568.57
220.82,567.80
221.27,566.65
221.72,565.25
222.17,563.77
222.63,562.35
223.08,561.13
223.53,560.21
223.98,559.61
224.43,559.30
224.88,559.19
225.34,559.15
225.79,559.04
226.24,558.76
226.69,558.20
227.14,557.35
227.59,556.23
228.04,554.91
228.50,553.51
228.95,552.15
229.40,550.96
229.85,550.03
230.30,549.43
230.75,549.18
231.20,549.24
231.66,549.58
232.11,550.13
232.56,550.82
233.01,551.59
233.46,552.42
233.91,553.29
234.36,554.22
234.81,555.24
235.26,556.36
235.71,557.60
236.17,558.94
236.62,560.33
237.07,561.67
237.52,562.84
237.97,563.71
238.42,564.13
238.87,564.00
239.32,563.23
239.77,561.82
240.22,559.80
240.67,557.30
241.12,554.47
241.57,551.54
242.02,548.72
242.47,546.25
242.92,544.32
243.37,543.09
243.82,542.64
244.27,542.99
244.72,544.12
245.18,545.91
245.63,548.21
246.08,550.87
246.53,553.71
246.98,556.56
247.43,559.28
247.88,561.78
248.33,564.01
248.78,565.95
249.23,567.61
249.68,569.03
250.12,570.21
250.57,571.18
251.02,571.91
251.47,572.37
251.92,572.47
252.37,572.13
252.82,571.30
253.27,569.92
253.72,568.01
254.17,565.61
254.62,562.86
255.07,559.94
255.52,557.04
255.97,554.41
256.42,552.24
256.87,550.69
257.32,549.89
257.77,549.84
258.22,550.51
258.66,551.78
259.11,553.48
259.56,555.43
260.01,557.43
260.46,559.29
260.91,560.89
261.36,562.12
261.81,562.94
262.26,563.33
262.71,563.34
263.15,563.00
263.60,562.38
264.05,561.53
264.50,560.49
264.95,559.29
265.40,557.96
265.85,556.52
266.30,555.00
266.74,553.46
267.19,551.94
267.64,550.53
268.09,549.31
268.54,548.35
268.99,547.73
269.43,547.52
269.88,547.73
270.33,548.37
270.78,549.42
271.23,550.83
271.68,552.52
272.12,554.41
272.57,556.41
273.02,558.41
273.47,560.34
273.92,562.12
274.36,563.70
274.81,565.06
275.26,566.19
275.71,567.11
276.16,567.87
276.60,568.51
277.05,569.12
277.50,569.74
277.95,570.43
278.39,571.24
278.84,572.19
279.29,573.28
279.74,574.49
280.19,575.79
280.63,577.13
281.08,578.44
281.53,579.64
281.98,580.65
282.42,581.39
282.87,581.79
283.32,581.78
283.76,581.36
284.21,580.51
284.66,579.29
285.11,577.77
285.55,576.06
286.00,574.31
286.45,572.64
286.89,571.19
287.34,570.08
287.79,569.36
288.23,569.07
288.68,569.20
289.13,569.66
289.58,570.38
290.02,571.26
290.47,572.17
290.92,573.05
291.36,573.82
291.81,574.46
292.26,574.96
292.70,575.34
293.15,575.61
293.60,575.81
294.04,575.93
294.49,575.96
294.93,575.89
295.38,575.69
295.83,575.34
296.27,574.84
296.72,574.21
297.17,573.51
297.61,572.80
298.06,572.17
298.50,571.68
298.95,571.40
299.40,571.36
299.84,571.54
300.29,571.89
300.73,572.34
301.18,572.77
301.63,573.09
302.07,573.21
302.52,573.07
302.96,572.64
303.41,571.91
303.85,570.95
304.30,569.80
304.75,568.56
305.19,567.30
305.64,566.09
306.08,565.00
306.53,564.05
306.97,563.27
307.42,562.66
307.86,562.21
308.31,561.92
308.75,561.77
309.20,561.77
309.65,561.92
310.09,562.24
310.54,562.73
310.98,563.41
311.43,564.27
311.87,565.31
312.32,566.49
312.76,567.77
313.21,569.12
313.65,570.48
314.10,571.82
314.54,573.11
314.99,574.34
315.43,575.51
315.87,576.65
316.32,577.78
316.76,578.93
317.21,580.14
317.65,581.39
318.10,582.68
318.54,583.99
318.99,585.27
319.43,586.48
319.88,587.56
320.32,588.48
320.76,589.20
321.21,589.71
321.65,590.03
322.10,590.15
322.54,590.12
322.99,589.97
323.43,589.73
323.87,589.45
324.32,589.14
324.76,588.81
325.21,588.48
325.65,588.14
326.09,587.76
326.54,587.35
326.98,586.90
327.42,586.40
327.87,585.88
328.31,585.36
328.76,584.87
329.20,584.43
329.64,584.08
330.09,583.81
330.53,583.64
330.97,583.53
331.42,583.46
331.86,583.40
332.30,583.34
332.75,583.25
333.19,583.14
333.63,583.03
334.08,582.95
334.52,582.93
334.96,583.00
335.41,583.18
335.85,583.47
336.29,583.87
336.74,584.36
337.18,584.92
337.62,585.51
338.06,586.10
338.51,586.69
338.95,587.25
339.39,587.79
339.84,588.30
340.28,588.77
340.72,589.22
341.16,589.62
341.61,589.95
342.05,590.20
342.49,590.32
342.93,590.27
343.38,590.00
343.82,589.49
344.26,588.72
344.70,587.69
345.15,586.43
345.59,584.99
346.03,583.46
346.47,581.92
346.92,580.47
347.36,579.17
347.80,578.11
348.24,577.30
348.68,576.76
349.13,576.48
349.57,576.42
350.01,576.54
350.45,576.79
350.89,577.14
351.34,577.55
351.78,578.00
352.22,578.45
352.66,578.88
353.10,579.25
353.54,579.51
353.99,579.61
354.43,579.51
354.87,579.17
355.31,578.59
355.75,577.79
356.19,576.82
356.63,575.76
357.08,574.72
357.52,573.81
357.96,573.16
358.40,572.84
358.84,572.94
359.28,573.48
359.72,574.47
360.16,575.88
360.60,577.67
361.05,579.77
361.49,582.09
361.93,584.55
362.37,587.06
362.81,589.51
363.25,591.81
363.69,593.86
364.13,595.57
364.57,596.89
365.01,597.76
365.45,598.17
365.89,598.17
366.33,597.80
366.78,597.16
367.22,596.36
367.66,595.49
368.10,594.67
368.54,593.97
368.98,593.48
369.42,593.22
369.86,593.20
370.30,593.43
370.74,593.89
371.18,594.55
371.62,595.39
372.06,596.38
372.50,597.50
372.94,598.74
373.38,600.07
373.82,601.48
374.26,602.93
374.70,604.38
375.14,605.79
375.58,607.10
376.02,608.26
376.46,609.24
376.90,610.01
377.34,610.58
377.78,610.96
378.21,611.19
378.65,611.32
379.09,611.43
379.53,611.57
379.97,611.80
380.41,612.18
380.85,612.74
381.29,613.53
381.73,614.57
382.17,615.87
382.61,617.45
383.05,619.31
383.49,621.43
383.93,623.76
384.36,626.24
384.80,628.77
385.24,631.26
385.68,633.58
386.12,635.66
386.56,637.42
387.00,638.83
387.44,639.92
387.87,640.75
388.31,641.42
388.75,642.06
389.19,642.79
389.63,643.72
390.07,644.92
390.51,646.41
390.94,648.18
391.38,650.14
391.82,652.21
392.26,654.24
392.70,656.12
393.14,657.73
393.57,659.00
394.01,659.88
394.45,660.40
394.89,660.62
395.33,660.64
395.76,660.61
396.20,660.69
396.64,661.04
397.08,661.82
397.52,663.14
397.95,665.10
398.39,667.73
398.83,671.02
399.27,674.94
399.70,679.38
400.14,684.25
400.58,689.43
401.02,694.81
401.45,700.31
401.89,705.87
402.33,711.46
402.77,717.08
403.20,722.76
403.64,728.55
404.08,734.53
404.52,740.75
404.95,747.27
405.39,754.13
405.83,761.38
406.26,769.00
406.70,777.00
407.14,785.34
407.58,793.97
408.01,802.82
408.45,811.81
408.89,820.87
409.32,829.90
409.76,838.84
410.20,847.63
410.63,856.22
411.07,864.60
411.51,872.76
411.94,880.72
412.38,888.52
412.82,896.16
413.25,903.70
413.69,911.16
414.12,918.56
414.56,925.95
415.00,933.36
415.43,940.83
415.87,948.43
416.31,956.22
416.74,964.28
417.18,972.68
417.61,981.47
418.05,990.69
418.49,1000.33
418.92,1010.38
419.36,1020.78
419.79,1031.44
420.23,1042.28
420.67,1053.19
421.10,1064.09
421.54,1074.90
421.97,1085.59
422.41,1096.14
422.84,1106.57
423.28,1116.91
423.71,1127.23
424.15,1137.57
424.59,1147.97
425.02,1158.44
425.46,1168.98
425.89,1179.53
426.33,1190.01
426.76,1200.31
427.20,1210.33
427.63,1219.96
428.07,1229.11
428.50,1237.77
428.94,1245.95
429.37,1253.72
429.81,1261.22
430.24,1268.61
430.68,1276.10
431.11,1283.86
431.55,1292.06
431.98,1300.82
432.42,1310.21
432.85,1320.23
433.28,1330.85
433.72,1341.99
434.15,1353.55
434.59,1365.43
435.02,1377.54
435.46,1389.80
435.89,1402.16
436.33,1414.57
436.76,1427.03
437.19,1439.51
437.63,1451.97
438.06,1464.38
438.50,1476.67
438.93,1488.77
439.37,1500.63
439.80,1512.15
440.23,1523.29
440.67,1534.01
441.10,1544.28
441.53,1554.09
441.97,1563.46
442.40,1572.40
442.84,1580.94
443.27,1589.13
443.70,1597.01
444.14,1604.63
444.57,1612.07
445.00,1619.42
445.44,1626.78
445.87,1634.28
446.30,1642.01
446.74,1650.07
447.17,1658.53
447.60,1667.41
448.04,1676.71
448.47,1686.37
448.90,1696.32
449.34,1706.48
449.77,1716.73
450.20,1727.01
450.64,1737.26
451.07,1747.47
451.50,1757.68
451.93,1767.97
452.37,1778.48
452.80,1789.36
453.23,1800.79
453.67,1812.93
454.10,1825.94
454.53,1839.93
454.96,1854.96
455.40,1871.03
455.83,1888.12
456.26,1906.13
456.69,1924.96
457.13,1944.49
457.56,1964.58
457.99,1985.12
458.42,2005.98
458.86,2027.05
459.29,2048.21
459.72,2069.36
460.15,2090.35
460.58,2111.08
461.02,2131.40
461.45,2151.20
461.88,2170.40
462.31,2188.94
462.74,2206.83
463.18,2224.11
463.61,2240.90
464.04,2257.35
464.47,2273.65
464.90,2290.03
465.33,2306.70
465.77,2323.90
466.20,2341.82
466.63,2360.67
467.06,2380.58
467.49,2401.68
467.92,2424.06
468.35,2447.76
468.78,2472.81
469.22,2499.20
469.65,2526.90
470.08,2555.85
470.51,2585.98
470.94,2617.24
471.37,2649.55
471.80,2682.82
472.23,2717.01
472.66,2752.06
473.10,2787.95
473.53,2824.70
473.96,2862.33
474.39,2900.91
474.82,2940.54
475.25,2981.30
475.68,3023.29
476.11,3066.59
476.54,3111.26
476.97,3157.33
477.40,3204.78
477.83,3253.58
478.26,3303.66
478.69,3354.88
479.12,3407.08
479.55,3460.02
479.98,3513.43
480.41,3566.98
480.84,3620.34
481.27,3673.22
481.70,3725.40
482.13,3776.77
482.56,3827.36
482.99,3877.34
483.42,3926.97
483.85,3976.58
484.28,4026.50
484.71,4076.98
485.14,4128.14
485.57,4179.95
486.00,4232.25
486.43,4284.75
486.86,4337.07
487.29,4388.82
487.72,4439.62
488.15,4489.10
488.58,4536.95
489.01,4582.90
489.44,4626.73
489.87,4668.26
490.30,4707.39
490.72,4744.13
491.15,4778.60
491.58,4811.07
492.01,4841.98
492.44,4871.85
492.87,4901.31
493.30,4930.99
493.73,4961.47
494.16,4993.24
494.59,5026.64
495.01,5061.89
495.44,5099.12
495.87,5138.32
496.30,5179.47
496.73,5222.45
497.16,5267.11
497.59,5313.19
498.01,5360.37
498.44,5408.17
498.87,5456.06
499.30,5503.44
499.73,5549.71
500.16,5594.38
500.58,5637.08
501.01,5677.63
501.44,5716.03
501.87,5752.39
502.30,5786.88
502.72,5819.60
503.15,5850.58
503.58,5879.68
504.01,5906.68
504.44,5931.26
504.86,5953.19
505.29,5972.38
505.72,5988.94
506.15,6003.28
506.57,6016.00
507.00,6027.87
507.43,6039.67
507.86,6052.10
508.28,6065.68
508.71,6080.67
509.14,6097.16
509.57,6115.04
509.99,6134.18
510.42,6154.50
510.85,6176.02
511.27,6198.93
511.70,6223.49
512.13,6250.03
512.56,6278.74
512.98,6309.68
513.41,6342.61
513.84,6377.08
514.26,6412.43
514.69,6447.93
515.12,6482.90
515.54,6516.83
515.97,6549.50
516.40,6580.97
516.82,6611.50
517.25,6641.48
517.68,6671.28
518.10,6701.08
518.53,6730.79
518.95,6760.02
519.38,6788.15
519.81,6814.42
520.23,6838.13
520.66,6858.78
521.09,6876.22
521.51,6890.71
521.94,6902.88
522.36,6913.61
522.79,6923.88
523.22,6934.58
523.64,6946.29
524.07,6959.22
524.49,6973.16
524.92,6987.59
525.34,7001.77
525.77,7014.97
526.20,7026.65
526.62,7036.64
527.05,7045.11
527.47,7052.66
527.90,7060.09
528.32,7068.31
528.75,7078.08
529.17,7089.87
529.60,7103.76
530.02,7119.42
530.45,7136.21
530.87,7153.33
531.30,7170.01
531.72,7185.73
532.15,7200.33
532.57,7214.08
533.00,7227.61
533.42,7241.78
533.85,7257.47
534.27,7275.38
534.70,7295.82
535.12,7318.61
535.55,7343.08
535.97,7368.17
536.40,7392.62
536.82,7415.23
537.25,7435.06
537.67,7451.69
538.09,7465.24
538.52,7476.41
538.94,7486.33
539.37,7496.30
539.79,7507.55
540.22,7520.96
540.64,7536.86
541.06,7554.95
541.49,7574.32
541.91,7593.62
542.34,7611.31
542.76,7625.97
543.18,7636.54
543.61,7642.59
544.03,7644.37
544.46,7642.84
544.88,7639.43
545.30,7635.82
545.73,7633.66
546.15,7634.18
546.57,7638.02
547.00,7645.06
547.42,7654.47
547.84,7664.80
548.27,7674.28
548.69,7681.11
549.11,7683.84
549.54,7681.60
549.96,7674.27
550.38,7662.57
550.81,7647.90
551.23,7632.13
551.65,7617.30
552.07,7605.27
552.50,7597.41
552.92,7594.37
553.34,7596.06
553.77,7601.63
554.19,7609.71
554.61,7618.67
555.03,7626.99
555.46,7633.52
555.88,7637.76
556.30,7639.99
556.72,7641.23
557.15,7643.10
557.57,7647.56
557.99,7656.56
558.41,7671.68
558.84,7693.88
559.26,7723.24
559.68,7758.93
560.10,7799.28
560.52,7842.03
560.95,7884.63
561.37,7924.65
561.79,7960.15
562.21,7989.98
562.63,8013.97
563.06,8033.01
563.48,8048.85
563.90,8063.90
564.32,8080.80
564.74,8102.03
565.16,8129.51
565.58,8164.21
566.01,8206.02
566.43,8253.67
566.85,8304.87
567.27,8356.63
567.69,8405.63
568.11,8448.70
568.53,8483.22
568.96,8507.52
569.38,8521.06
569.80,8524.49
570.22,8519.56
570.64,8508.81
571.06,8495.19
571.48,8481.64
571.90,8470.62
572.32,8463.80
572.74,8461.82
573.16,8464.22
573.58,8469.55
574.01,8475.62
574.43,8479.83
574.85,8479.63
575.27,8472.87
575.69,8458.20
576.11,8435.24
576.53,8404.69
576.95,8368.28
577.37,8328.50
577.79,8288.32
578.21,8250.76
578.63,8218.52
579.05,8193.58
579.47,8177.01
579.89,8168.77
580.31,8167.80
580.73,8172.16
581.15,8179.35
581.57,8186.65
581.99,8191.58
582.41,8192.22
582.83,8187.56
583.25,8177.64
583.67,8163.57
584.09,8147.46
584.51,8132.08
584.93,8120.56
585.34,8115.96
585.76,8120.80
586.18,8136.77
586.60,8164.46
587.02,8203.23
587.44,8251.32
587.86,8306.03
588.28,8364.09
588.70,8422.02
589.12,8476.67
589.54,8525.54
589.95,8567.18
590.37,8601.33
590.79,8629.01
591.21,8652.33
591.63,8674.31
592.05,8698.45
592.47,8728.33
592.89,8767.12
593.30,8817.24
593.72,8880.00
594.14,8955.40
594.56,9042.16
594.98,9137.77
595.40,9238.76
595.81,9341.05
596.23,9440.40
596.65,9532.81
597.07,9615.00
597.49,9684.71
597.90,9740.93
598.32,9784.05
598.74,9815.69
599.16,9838.58
599.58,9856.18
599.99,9872.23
600.41,9890.32
600.83,9913.42
601.25,9943.51
601.66,9981.30
602.08,10026.16
602.50,10076.16
602.92,10128.30
603.33,10178.83
603.75,10223.72
604.17,10259.10
604.59,10281.71
605.00,10289.28
605.42,10280.81
605.84,10256.65
606.25,10218.47
606.67,10169.11
607.09,10112.28
607.51,10052.14
607.92,9992.95
608.34,9938.60
608.76,9892.26
609.17,9856.15
609.59,9831.31
610.01,9817.62
610.42,9813.85
610.84,9817.85
611.26,9826.85
611.67,9837.73
612.09,9847.43
612.51,9853.25
612.92,9853.14
613.34,9845.93
613.75,9831.43
614.17,9810.46
614.59,9784.75
615.00,9756.77
615.42,9729.44
615.83,9705.81
616.25,9688.75
616.67,9680.63
617.08,9683.06
617.50,9696.71
617.91,9721.27
618.33,9755.46
618.75,9797.18
619.16,9843.75
619.58,9892.14
619.99,9939.31
620.41,9982.46
620.82,10019.34
621.24,10048.38
621.65,10068.87
622.07,10080.95
622.48,10085.65
622.90,10084.68
623.31,10080.33
623.73,10075.22
624.14,10072.07
624.56,10073.43
624.97,10081.46
625.39,10097.75
625.80,10123.17
626.22,10157.80
626.63,10200.92
627.05,10251.08
627.46,10306.21
627.88,10363.81
628.29,10421.14
628.71,10475.46
629.12,10524.27
629.54,10565.51
629.95,10597.80
630.37,10620.50
630.78,10633.85
631.19,10638.93
631.61,10637.58
632.02,10632.24
632.44,10625.71
632.85,10620.87
633.26,10620.42
633.68,10626.62
634.09,10641.05
634.51,10664.47
634.92,10696.82
635.33,10737.18
635.75,10783.92
636.16,10834.88
636.57,10887.54
636.99,10939.31
637.40,10987.68
637.82,11030.46
638.23,11065.93
638.64,11092.96
639.06,11111.08
639.47,11120.50
639.88,11122.12
640.30,11117.44
640.71,11108.43
641.12,11097.44
641.53,11086.96
641.95,11079.48
642.36,11077.25
642.77,11082.11
643.19,11095.36
643.60,11117.58
644.01,11148.66
644.42,11187.73
644.84,11233.30
645.25,11283.31
645.66,11335.39
646.08,11386.99
646.49,11435.63
646.90,11479.12
647.31,11515.71
647.73,11544.26
648.14,11564.33
648.55,11576.16
648.96,11580.70
649.37,11579.48
649.79,11574.49
650.20,11568.01
650.61,11562.44
651.02,11560.11
651.43,11563.10
651.85,11573.10
652.26,11591.28
652.67,11618.17
653.08,11653.69
653.49,11697.07
653.90,11746.98
654.32,11801.54
654.73,11858.56
655.14,11915.62
655.55,11970.32
655.96,12020.46
656.37,12064.24
656.78,12100.36
657.20,12128.19
657.61,12147.75
658.02,12159.74
658.43,12165.42
658.84,12166.54
659.25,12165.14
659.66,12163.42
660.07,12163.58
660.48,12167.64
660.90,12177.35
661.31,12194.07
661.72,12218.74
662.13,12251.78
662.54,12293.14
662.95,12342.26
663.36,12398.11
663.77,12459.27
664.18,12523.94
664.59,12590.07
665.00,12655.45
665.41,12717.86
665.82,12775.20
666.23,12825.61
666.64,12867.67
667.05,12900.48
667.46,12923.78
667.87,12937.99
668.28,12944.20
668.69,12944.13
669.10,12939.99
669.51,12934.32
669.92,12929.79
670.33,12928.96
670.74,12934.10
671.15,12947.00
671.56,12968.82
671.97,13000.04
672.38,13040.44
672.79,13089.14
673.20,13144.66
673.61,13205.10
674.02,13268.24
674.42,13331.69
674.83,13393.08
675.24,13450.15
675.65,13500.91
676.06,13543.71
676.47,13577.37
676.88,13601.20
677.29,13615.06
677.70,13619.37
678.11,13615.06
678.51,13603.55
678.92,13586.64
679.33,13566.42
679.74,13545.11
680.15,13524.98
680.56,13508.19
680.97,13496.66
681.37,13491.95
681.78,13495.21
682.19,13507.07
682.60,13527.62
683.01,13556.39
683.42,13592.38
683.82,13634.12
684.23,13679.72
684.64,13727.04
685.05,13773.76
685.45,13817.56
685.86,13856.28
686.27,13888.05
686.68,13911.43
687.09,13925.48
687.49,13929.87
687.90,13924.85
688.31,13911.23
688.72,13890.35
689.12,13863.96
689.53,13834.10
689.94,13802.99
690.35,13772.87
690.75,13745.92
691.16,13724.10
691.57,13709.10
691.97,13702.19
692.38,13704.22
692.79,13715.52
693.20,13735.95
693.60,13764.85
694.01,13801.11
694.42,13843.22
694.82,13889.44
695.23,13937.80
695.64,13986.33
696.04,14033.12
696.45,14076.45
696.86,14114.88
697.26,14147.28
697.67,14172.91
698.07,14191.40
698.48,14202.72
698.89,14207.21
699.29,14205.50
699.70,14198.48
700.11,14187.28
700.51,14173.19
700.92,14157.61
701.32,14142.01
701.73,14127.85
702.14,14116.52
702.54,14109.25
702.95,14107.08
703.35,14110.79
703.76,14120.87
704.16,14137.50
704.57,14160.52
704.97,14189.46
705.38,14223.53
705.79,14261.68
706.19,14302.60
706.60,14344.79
707.00,14386.64
707.41,14426.46
707.81,14462.62
708.22,14493.61
708.62,14518.12
709.03,14535.19
709.43,14544.22
709.84,14545.05
710.24,14537.99
710.65,14523.84
711.05,14503.79
711.46,14479.44
711.86,14452.65
712.27,14425.49
712.67,14400.08
713.07,14378.53
713.48,14362.75
713.88,14354.40
714.29,14354.74
714.69,14364.57
715.10,14384.17
715.50,14413.28
715.90,14451.08
716.31,14496.30
716.71,14547.26
717.12,14601.99
717.52,14658.37
717.92,14714.25
718.33,14767.58
718.73,14816.51
719.14,14859.47
719.54,14895.20
719.94,14922.76
720.35,14941.57
720.75,14951.38
721.15,14952.25
721.56,14944.57
721.96,14929.02
722.36,14906.64
722.77,14878.76
723.17,14847.01
723.57,14813.30
723.98,14779.70
724.38,14748.39
724.78,14721.51
725.19,14701.01
725.59,14688.56
725.99,14685.38
726.39,14692.18
726.80,14709.13
727.20,14735.79
727.60,14771.25
728.00,14814.12
728.41,14862.67
728.81,14914.96
729.21,14968.95
729.61,15022.56
730.02,15073.84
730.42,15120.95
730.82,15162.28
731.22,15196.43
731.63,15222.30
732.03,15239.03
732.43,15246.07
732.83,15243.20
733.23,15230.53
733.64,15208.48
734.04,15177.84
734.44,15139.72
734.84,15095.55
735.24,15047.00
735.64,14995.97
736.05,14944.48
736.45,14894.60
736.85,14848.36
737.25,14807.64
737.65,14774.06
738.05,14748.92
738.45,14733.10
738.86,14726.97
739.26,14730.39
739.66,14742.73
740.06,14762.83
740.46,14789.17
740.86,14819.87
741.26,14852.89
741.66,14886.13
742.06,14917.57
742.46,14945.34
742.87,14967.88
743.27,14983.92
743.67,14992.56
744.07,14993.25
744.47,14985.76
744.87,14970.15
745.27,14946.78
745.67,14916.25
746.07,14879.37
746.47,14837.20
746.87,14791.04
747.27,14742.41
747.67,14693.05
748.07,14644.88
748.47,14600.00
748.87,14560.54
749.27,14528.65
749.67,14506.36
750.07,14495.46
750.47,14497.44
750.87,14513.35
751.27,14543.76
751.67,14588.68
752.07,14647.55
752.47,14719.22
752.87,14801.95
753.27,14893.49
753.66,14991.11
754.06,15091.69
754.46,15191.84
754.86,15288.05
755.26,15376.80
755.66,15454.75
756.06,15518.87
756.46,15566.59
756.86,15595.88
757.26,15605.36
757.65,15594.36
758.05,15562.85
758.45,15511.48
758.85,15441.50
759.25,15354.66
759.65,15253.15
760.05,15139.51
760.44,15016.48
760.84,14886.98
761.24,14753.96
761.64,14620.37
762.04,14489.00
762.44,14362.51
762.83,14243.25
763.23,14133.28
763.63,14034.25
764.03,13947.38
764.43,13873.40
764.82,13812.56
765.22,13764.62
765.62,13728.83
766.02,13704.05
766.41,13688.76
766.81,13681.11
767.21,13679.06
767.61,13680.44
768.00,13682.99
768.40,13684.51
768.80,13682.84
769.20,13675.99
769.59,13662.21
769.99,13639.96
770.39,13608.09
770.79,13565.77
771.18,13512.61
771.58,13448.65
771.98,13374.35
772.37,13290.59
772.77,13198.63
773.17,13100.03
773.56,12996.61
773.96,12890.32
774.36,12783.25
774.75,12677.47
775.15,12575.05
775.55,12477.96
775.94,12388.04
776.34,12306.94
776.73,12236.09
777.13,12176.62
777.53,12129.36
777.92,12094.72
778.32,12072.70
778.72,12062.84
779.11,12064.24
779.51,12075.58
779.90,12095.16
780.30,12121.00
780.69,12150.92
781.09,12182.68
781.49,12214.04
781.88,12242.91
782.28,12267.41
782.67,12285.96
783.07,12297.26
783.46,12300.35
783.86,12294.60
784.25,12279.63
784.65,12255.31
785.04,12221.74
785.44,12179.17
785.83,12128.01
786.23,12068.83
786.62,12002.36
787.02,11929.52
787.41,11851.43
787.81,11769.44
788.20,11685.12
788.60,11600.20
788.99,11516.59
789.39,11436.22
789.78,11361.03
790.18,11292.81
790.57,11233.12
790.97,11183.23
791.36,11144.06
791.75,11116.12
792.15,11099.52
792.54,11094.00
792.94,11098.95
793.33,11113.46
793.72,11136.34
794.12,11166.18
794.51,11201.42
794.91,11240.36
795.30,11281.21
795.69,11322.18
796.09,11361.49
796.48,11397.49
796.87,11428.65
797.27,11453.68
797.66,11471.51
798.05,11481.32
798.45,11482.55
798.84,11474.88
799.23,11458.20
799.63,11432.57
800.02,11398.22
800.41,11355.48
800.81,11304.84
801.20,11246.89
801.59,11182.38
801.99,11112.23
802.38,11037.51
802.77,10959.53
803.16,10879.75
803.56,10799.82
803.95,10721.48
804.34,10646.52
804.73,10576.69
805.13,10513.59
805.52,10458.57
805.91,10412.67
806.30,10376.51
806.69,10350.31
807.09,10333.84
807.48,10326.51
807.87,10327.38
808.26,10335.30
808.66,10348.95
809.05,10366.95
809.44,10387.93
809.83,10410.56
810.22,10433.58
810.61,10455.81
811.01,10476.15
811.40,10493.56
811.79,10507.08
812.18,10515.84
812.57,10519.07
812.96,10516.13
813.35,10506.53
813.75,10489.95
814.14,10466.23
814.53,10435.37
814.92,10397.46
815.31,10352.70
815.70,10301.36
816.09,10243.74
816.48,10180.24
816.87,10111.32
817.26,10037.59
817.65,9959.83
818.04,9879.01
818.44,9796.35
818.83,9713.25
819.22,9631.26
819.61,9552.03
820.00,9477.17
820.39,9408.18
820.78,9346.32
821.17,9292.58
821.56,9247.61
821.95,9211.70
822.34,9184.83
822.73,9166.69
823.12,9156.70
823.51,9154.14
823.90,9158.10
824.29,9167.62
824.68,9181.64
825.07,9199.05
825.46,9218.73
825.85,9239.57
826.24,9260.46
826.62,9280.36
827.01,9298.27
827.40,9313.30
827.79,9324.61
828.18,9331.45
828.57,9333.16
828.96,9329.11
829.35,9318.77
829.74,9301.68
830.13,9277.48
830.52,9245.97
830.90,9207.16
831.29,9161.26
831.68,9108.73
832.07,9050.29
832.46,8986.85
832.85,8919.49
833.24,8849.42
833.62,8777.84
834.01,8705.97
834.40,8634.93
834.79,8565.78
835.18,8499.48
835.57,8436.90
835.95,8378.87
836.34,8326.15
836.73,8279.45
837.12,8239.40
837.51,8206.55
837.89,8181.29
838.28,8163.85
838.67,8154.23
839.06,8152.20
839.44,8157.26
839.83,8168.68
840.22,8185.54
840.61,8206.73
840.99,8231.07
841.38,8257.32
841.77,8284.24
842.16,8310.70
842.54,8335.65
842.93,8358.17
843.32,8377.51
843.70,8393.08
844.09,8404.44
844.48,8411.27
844.86,8413.40
845.25,8410.74
845.64,8403.28
846.02,8391.06
846.41,8374.14
846.80,8352.60
847.18,8326.56
847.57,8296.13
847.96,8261.51
848.34,8222.93
848.73,8180.73
849.12,8135.35
849.50,8087.37
849.89,8037.45
850.27,7986.36
850.66,7934.94
851.05,7884.03
851.43,7834.46
851.82,7787.01
852.20,7742.36
852.59,7701.11
852.97,7663.75
853.36,7630.69
853.75,7602.23
854.13,7578.64
854.52,7560.11
854.90,7546.77
855.29,7538.71
855.67,7535.92
856.06,7538.32
856.44,7545.74
856.83,7557.86
857.21,7574.27
857.60,7594.42
857.98,7617.65
858.37,7643.20
858.75,7670.23
859.14,7697.89
859.52,7725.30
859.91,7751.63
860.29,7776.11
860.68,7798.07
861.06,7816.95
861.44,7832.28
861.83,7843.75
862.21,7851.13
862.60,7854.29
862.98,7853.19
863.37,7847.86
863.75,7838.40
864.13,7824.96
864.52,7807.74
864.90,7786.99
865.29,7763.00
865.67,7736.07
866.05,7706.58
866.44,7674.89
866.82,7641.43
867.20,7606.67
867.59,7571.10
867.97,7535.27
868.35,7499.76
868.74,7465.17
869.12,7432.08
869.50,7401.05
869.89,7372.59
870.27,7347.11
870.65,7324.90
871.04,7306.14
871.42,7290.90
871.80,7279.12
872.19,7270.67
872.57,7265.36
872.95,7262.96
873.33,7263.22
873.72,7265.92
874.10,7270.81
874.48,7277.68
874.86,7286.36
875.25,7296.68
875.63,7308.47
876.01,7321.59
876.39,7335.90
876.77,7351.24
877.16,7367.46
877.54,7384.34
877.92,7401.69
878.30,7419.24
878.68,7436.75
879.07,7453.98
879.45,7470.71
879.83,7486.82
880.21,7502.27
880.59,7517.14
880.97,7531.65
881.36,7546.14
881.74,7561.06
882.12,7576.91
882.50,7594.24
882.88,7613.60
883.26,7635.46
883.64,7660.23
884.02,7688.20
884.41,7719.56
884.79,7754.39
885.17,7792.64
885.55,7834.22
885.93,7878.93
886.31,7926.55
886.69,7976.82
887.07,8029.47
887.45,8084.21
887.83,8140.76
888.21,8198.81
888.59,8258.06
888.97,8318.16
889.35,8378.74
889.73,8439.36
890.11,8499.52
890.49,8558.62
890.87,8615.99
891.25,8670.88
891.63,8722.44
892.01,8769.81
892.39,8812.07
892.77,8848.32
893.15,8877.74
893.53,8899.56
893.91,8913.17
894.29,8918.09
894.67,8914.01
895.05,8900.78
895.43,8878.40
895.81,8847.01
896.19,8806.86
896.57,8758.27
896.95,8701.63
897.32,8637.36
897.70,8565.92
898.08,8487.80
898.46,8403.52
898.84,8313.63
899.22,8218.72
899.60,8119.42
899.98,8016.37
900.35,7910.25
900.73,7801.75
901.11,7691.53
901.49,7580.29
901.87,7468.67
902.25,7357.30
902.63,7246.82
903.00,7137.81
903.38,7030.86
903.76,6926.49
904.14,6825.23
904.52,6727.51
904.89,6633.75
905.27,6544.26
905.65,6459.29
906.03,6379.00
906.40,6303.50
906.78,6232.78
907.16,6166.79
907.54,6105.42
907.91,6048.48
908.29,5995.72
908.67,5946.87
909.05,5901.60
909.42,5859.52
909.80,5820.27
910.18,5783.43
910.55,5748.63
910.93,5715.55
911.31,5683.89
911.68,5653.44
912.06,5624.08
912.44,5595.72
912.82,5568.37
913.19,5542.04
913.57,5516.77
913.94,5492.58
914.32,5469.45
914.70,5447.31
915.07,5426.06
915.45,5405.48
915.83,5385.37
916.20,5365.43
916.58,5345.40
916.95,5324.97
917.33,5303.88
917.71,5281.93
918.08,5258.92
918.46,5234.75
918.83,5209.34
919.21,5182.68
919.58,5154.77
919.96,5125.65
920.34,5095.38
920.71,5064.01
921.09,5031.59
921.46,4998.18
921.84,4963.85
922.21,4928.68
922.59,4892.80
922.96,4856.32
923.34,4819.42
923.71,4782.30
924.09,4745.16
924.46,4708.22
924.84,4671.68
925.21,4635.72
925.59,4600.48
925.96,4566.04
926.34,4532.48
926.71,4499.80
927.08,4468.02
927.46,4437.15
927.83,4407.21
928.21,4378.24
928.58,4350.31
928.96,4323.53
929.33,4297.99
929.70,4273.78
930.08,4250.97
930.45,4229.57
930.83,4209.56
931.20,4190.83
931.57,4173.22
931.95,4156.53
932.32,4140.50
932.69,4124.88
933.07,4109.40
933.44,4093.86
933.81,4078.06
934.19,4061.89
934.56,4045.28
934.93,4028.25
935.31,4010.85
935.68,3993.16
936.05,3975.32
936.43,3957.43
936.80,3939.59
937.17,3921.89
937.54,3904.36
937.92,3887.01
938.29,3869.79
938.66,3852.62
939.03,3835.39
939.41,3817.97
939.78,3800.21
940.15,3781.97
940.52,3763.11
940.90,3743.53
941.27,3723.14
941.64,3701.93
942.01,3679.88
942.38,3657.04
942.76,3633.48
943.13,3609.30
943.50,3584.58
943.87,3559.44
944.24,3533.96
944.61,3508.23
944.99,3482.30
945.36,3456.22
945.73,3430.04
946.10,3403.76
946.47,3377.41
946.84,3351.00
947.21,3324.53
947.59,3298.02
947.96,3271.49
948.33,3244.96
948.70,3218.52
949.07,3192.23
949.44,3166.21
949.81,3140.60
950.18,3115.56
950.55,3091.26
950.92,3067.86
951.29,3045.52
951.66,3024.33
952.03,3004.38
952.41,2985.67
952.78,2968.17
953.15,2951.77
953.52,2936.30
953.89,2921.58
954.26,2907.38
954.63,2893.47
955.00,2879.65
955.37,2865.76
955.74,2851.70
956.11,2837.45
956.48,2823.04
956.84,2808.60
957.21,2794.27
957.58,2780.21
957.95,2766.56
958.32,2753.42
958.69,2740.79
959.06,2728.62
959.43,2716.76
959.80,2705.00
960.17,2693.11
960.54,2680.85
960.91,2668.01
961.28,2654.45
961.64,2640.09
962.01,2624.93
962.38,2609.04
962.75,2592.54
963.12,2575.57
963.49,2558.29
963.86,2540.82
964.22,2523.27
964.59,2505.69
964.96,2488.09
965.33,2470.45
965.70,2452.71
966.07,2434.82
966.43,2416.71
966.80,2398.37
967.17,2379.79
967.54,2361.01
967.91,2342.13
968.27,2323.24
968.64,2304.48
969.01,2285.98
969.38,2267.83
969.74,2250.11
970.11,2232.84
970.48,2215.98
970.85,2199.49
971.21,2183.25
971.58,2167.17
971.95,2151.13
972.31,2135.06
972.68,2118.90
973.05,2102.64
973.42,2086.28
973.78,2069.86
974.15,2053.42
974.52,2037.03
974.88,2020.72
975.25,2004.53
975.62,1988.47
975.98,1972.57
976.35,1956.83
976.72,1941.27
977.08,1925.91
977.45,1910.80
977.81,1895.99
978.18,1881.53
978.55,1867.48
978.91,1853.88
979.28,1840.73
979.64,1828.03
980.01,1815.73
980.38,1803.76
980.74,1792.02
981.11,1780.44
981.47,1768.94
981.84,1757.47
982.20,1746.05
982.57,1734.68
982.93,1723.42
983.30,1712.31
983.66,1701.41
984.03,1690.72
984.39,1680.22
984.76,1669.84
985.12,1659.49
985.49,1649.08
985.85,1638.49
986.22,1627.66
986.58,1616.56
986.95,1605.23
987.31,1593.72
987.68,1582.18
988.04,1570.72
988.41,1559.52
988.77,1548.70
989.13,1538.37
989.50,1528.59
989.86,1519.35
990.23,1510.59
990.59,1502.20
990.96,1494.01
991.32,1485.84
991.68,1477.49
992.05,1468.80
992.41,1459.61
992.77,1449.85
993.14,1439.48
993.50,1428.54
993.86,1417.11
994.23,1405.34
994.59,1393.38
994.95,1381.40
995.32,1369.58
995.68,1358.05
996.04,1346.93
996.41,1336.28
996.77,1326.15
997.13,1316.56
997.50,1307.50
997.86,1298.93
998.22,1290.83
998.58,1283.13
998.95,1275.80
999.31,1268.77
999.67,1261.98
1000.03,1255.36
1000.40,1248.86
1000.76,1242.42
1001.12,1235.97
1001.48,1229.48
1001.84,1222.91
1002.21,1216.22
1002.57,1209.38
1002.93,1202.38
1003.29,1195.16
1003.65,1187.68
1004.02,1179.91
1004.38,1171.80
1004.74,1163.29
1005.10,1154.37
1005.46,1145.02
1005.82,1135.28
1006.19,1125.20
1006.55,1114.86
1006.91,1104.37
1007.27,1093.87
1007.63,1083.48
1007.99,1073.31
1008.35,1063.48
1008.71,1054.05
1009.07,1045.06
1009.43,1036.54
1009.80,1028.46
1010.16,1020.80
1010.52,1013.50
1010.88,1006.52
1011.24,999.79
1011.60,993.29
1011.96,986.97
1012.32,980.81
1012.68,974.81
1013.04,968.96
1013.40,963.26
1013.76,957.74
1014.12,952.38
1014.48,947.20
1014.84,942.17
1015.20,937.28
1015.56,932.49
1015.92,927.74
1016.28,923.00
1016.64,918.21
1017.00,913.36
1017.36,908.44
1017.72,903.48
1018.07,898.52
1018.43,893.63
1018.79,888.88
1019.15,884.34
1019.51,880.06
1019.87,876.05
1020.23,872.29
1020.59,868.72
1020.95,865.24
1021.31,861.72
1021.66,858.02
1022.02,854.01
1022.38,849.56
1022.74,844.58
1023.10,839.04
1023.46,832.93
1023.81,826.30
1024.17,819.25
1024.53,811.92
1024.89,804.48
1025.25,797.11
1025.60,790.04
1025.96,783.49
1026.32,777.66
1026.68,772.73
1027.04,768.09
1027.39,765.48
1027.75,764.05
1028.11,763.64
1028.47,764.05
1028.82,737.23
1029.18,798.20
1029.54,770.26
1029.90,770.26
1030.25,770.26
