wavelength,counts
188.65,38.42
189.10,38.42
189.56,38.42
190.01,38.42
190.47,38.42
190.92,70.27
191.37,83.39
191.83,98.17
192.28,114.34
192.74,131.57
193.19,149.47
193.64,167.63
194.10,186.47
194.55,205.90
195.01,225.85
195.46,246.27
195.91,267.14
196.37,288.44
196.82,310.11
197.27,332.09
197.73,354.27
198.18,376.48
198.63,398.52
199.09,420.13
199.54,440.99
199.99,460.81
200.45,479.27
200.90,496.11
201.35,511.13
201.81,524.22
202.26,535.34
202.71,544.54
203.17,551.96
203.62,557.77
204.07,562.19
204.53,565.44
204.98,567.76
205.43,569.33
205.89,570.33
206.34,570.89
206.79,571.13
207.25,571.13
207.70,570.97
208.15,570.68
208.60,570.32
209.06,569.91
209.51,569.49
209.96,569.05
210.41,568.59
210.87,568.10
211.32,567.54
211.77,566.89
212.23,566.10
212.68,565.15
213.13,564.02
213.58,562.73
214.04,561.29
214.49,559.75
214.94,558.18
215.39,556.64
215.84,555.19
216.30,553.89
216.75,552.78
217.20,551.85
217.65,551.10
218.11,550.50
218.56,550.01
219.01,549.61
219.46,549.26
219.91,548.95
220.37,548.70
220.82,548.51
221.27,548.43
221.72,548.49
222.17,548.71
222.63,549.10
223.08,549.67
223.53,550.40
223.98,551.24
224.43,552.15
224.88,553.08
225.34,553.98
225.79,554.82
226.24,555.58
226.69,556.24
227.14,556.81
227.59,557.30
228.04,557.72
228.50,558.09
228.95,558.42
229.40,558.70
229.85,558.94
230.30,559.13
230.75,559.27
231.20,559.36
231.66,559.41
232.11,559.42
232.56,559.40
233.01,559.35
233.46,559.28
233.91,559.18
234.36,559.02
234.81,558.80
235.26,558.49
235.71,558.10
236.17,557.62
236.62,557.07
237.07,556.46
237.52,555.83
237.97,555.19
238.42,554.58
238.87,553.99
239.32,553.41
239.77,552.82
240.22,552.18
240.67,551.43
241.12,550.54
241.57,549.49
242.02,548.26
242.47,546.88
242.92,545.39
243.37,543.86
243.82,542.37
244.27,540.98
244.72,539.75
245.18,538.74
245.63,537.94
246.08,537.37
246.53,536.99
246.98,536.77
247.43,536.66
247.88,536.62
248.33,536.63
248.78,536.67
249.23,536.72
249.68,536.79
250.12,536.89
250.57,537.01
251.02,537.18
251.47,537.39
251.92,537.64
252.37,537.96
252.82,538.33
253.27,538.80
253.72,539.37
254.17,540.09
254.62,540.98
255.07,542.09
255.52,543.41
255.97,544.93
256.42,546.62
256.87,548.39
257.32,550.15
257.77,551.78
258.22,553.17
258.66,554.22
259.11,554.87
259.56,555.08
260.01,554.90
260.46,554.39
260.91,553.66
261.36,552.82
261.81,551.99
262.26,551.29
262.71,550.79
263.15,550.53
263.60,550.52
264.05,550.75
264.50,551.18
264.95,551.77
265.40,552.49
265.85,553.29
266.30,554.16
266.74,555.07
267.19,556.01
267.64,556.95
268.09,557.89
268.54,558.78
268.99,559.59
269.43,560.28
269.88,560.81
270.33,561.16
270.78,561.32
271.23,561.29
271.68,561.11
272.12,560.82
272.57,560.48
273.02,560.15
273.47,559.91
273.92,559.80
274.36,559.85
274.81,560.07
275.26,560.44
275.71,560.90
276.16,561.40
276.60,561.86
277.05,562.20
277.50,562.39
277.95,562.39
278.39,562.21
278.84,561.89
279.29,561.51
279.74,561.17
280.19,560.97
280.63,561.01
281.08,561.34
281.53,562.02
281.98,563.02
282.42,564.29
282.87,565.73
283.32,567.23
283.76,568.64
284.21,569.86
284.66,570.78
285.11,571.34
285.55,571.53
286.00,571.37
286.45,570.93
286.89,570.31
287.34,569.60
287.79,568.92
288.23,568.35
288.68,567.98
289.13,567.85
289.58,568.00
290.02,568.41
290.47,569.06
290.92,569.91
291.36,570.90
291.81,571.94
292.26,572.95
292.70,573.82
293.15,574.47
293.60,574.80
294.04,574.76
294.49,574.32
294.93,573.46
295.38,572.23
295.83,570.67
296.27,568.89
296.72,566.97
297.17,565.03
297.61,563.15
298.06,561.43
298.50,559.95
298.95,558.76
299.40,557.89
299.84,557.38
300.29,557.23
300.73,557.43
301.18,557.95
301.63,558.75
302.07,559.78
302.52,560.98
302.96,562.26
303.41,563.56
303.85,564.81
304.30,565.94
304.75,566.91
305.19,567.69
305.64,568.29
306.08,568.72
306.53,569.01
306.97,569.20
307.42,569.35
307.86,569.48
308.31,569.63
308.75,569.82
309.20,570.04
309.65,570.30
310.09,570.58
310.54,570.87
310.98,571.18
311.43,571.51
311.87,571.90
312.32,572.38
312.76,572.98
313.21,573.74
313.65,574.68
314.10,575.81
314.54,577.11
314.99,578.54
315.43,580.05
315.87,581.56
316.32,583.00
316.76,584.29
317.21,585.39
317.65,586.23
318.10,586.81
318.54,587.12
318.99,587.19
319.43,587.07
319.88,586.80
320.32,586.43
320.76,586.02
321.21,585.60
321.65,585.19
322.10,584.78
322.54,584.37
322.99,583.92
323.43,583.41
323.87,582.84
324.32,582.20
324.76,581.52
325.21,580.84
325.65,580.22
326.09,579.69
326.54,579.32
326.98,579.11
327.42,579.07
327.87,579.14
328.31,579.26
328.76,579.34
329.20,579.24
329.64,578.86
330.09,578.11
330.53,576.91
330.97,575.22
331.42,573.06
331.86,570.49
332.30,567.61
332.75,564.53
333.19,561.39
333.63,558.35
334.08,555.54
334.52,553.07
334.96,551.03
335.41,549.49
335.85,548.48
336.29,548.01
336.74,548.06
337.18,548.62
337.62,549.63
338.06,551.07
338.51,552.87
338.95,554.99
339.39,557.38
339.84,559.98
340.28,562.75
340.72,565.64
341.16,568.58
341.61,571.52
342.05,574.40
342.49,577.14
342.93,579.68
343.38,581.96
343.82,583.90
344.26,585.46
344.70,586.61
345.15,587.33
345.59,587.64
346.03,587.57
346.47,587.17
346.92,586.51
347.36,585.68
347.80,584.74
348.24,583.78
348.68,582.85
349.13,582.03
349.57,581.33
350.01,580.80
350.45,580.45
350.89,580.26
351.34,580.23
351.78,580.34
352.22,580.58
352.66,580.92
353.10,581.36
353.54,581.87
353.99,582.46
354.43,583.13
354.87,583.87
355.31,584.70
355.75,585.59
356.19,586.53
356.63,587.49
357.08,588.42
357.52,589.25
357.96,589.92
358.40,590.34
358.84,590.46
359.28,590.21
359.72,589.58
360.16,588.56
360.60,587.22
361.05,585.63
361.49,583.89
361.93,582.15
362.37,580.54
362.81,579.20
363.25,578.26
363.69,577.83
364.13,577.98
364.57,578.76
365.01,580.17
365.45,582.17
365.89,584.70
366.33,587.64
366.78,590.87
367.22,594.23
367.66,597.55
368.10,600.67
368.54,603.42
368.98,605.68
369.42,607.35
369.86,608.39
370.30,608.80
370.74,608.62
371.18,607.97
371.62,606.96
372.06,605.76
372.50,604.53
372.94,603.43
373.38,602.58
373.82,602.08
374.26,601.99
374.70,602.31
375.14,603.00
375.58,604.00
376.02,605.20
376.46,606.50
376.90,607.81
377.34,609.05
377.78,610.17
378.21,611.16
378.65,612.03
379.09,612.84
379.53,613.66
379.97,614.59
380.41,615.71
380.85,617.10
381.29,618.79
381.73,620.82
382.17,623.17
382.61,625.81
383.05,628.65
383.49,631.63
383.93,634.64
384.36,637.59
384.80,640.41
385.24,643.01
385.68,645.34
386.12,647.36
386.56,649.06
387.00,650.44
387.44,651.50
387.87,652.26
388.31,652.74
388.75,652.97
389.19,652.98
389.63,652.80
390.07,652.45
390.51,651.99
390.94,651.46
391.38,650.92
391.82,650.44
392.26,650.08
392.70,649.92
393.14,650.05
393.57,650.52
394.01,651.37
394.45,652.65
394.89,654.37
395.33,656.50
395.76,659.03
396.20,661.91
396.64,665.09
397.08,668.54
397.52,672.21
397.95,676.07
398.39,680.13
398.83,684.41
399.27,688.91
399.70,693.70
400.14,698.80
400.58,704.26
401.02,710.07
401.45,716.23
401.89,722.69
402.33,729.41
402.77,736.28
403.20,743.23
403.64,750.17
404.08,757.03
404.52,763.76
404.95,770.36
405.39,776.84
405.83,783.25
406.26,789.67
406.70,796.15
407.14,802.78
407.58,809.61
408.01,816.69
408.45,824.02
408.89,831.60
409.32,839.40
409.76,847.35
410.20,855.39
410.63,863.44
411.07,871.44
411.51,879.31
411.94,887.03
412.38,894.56
412.82,901.93
413.25,909.17
413.69,916.33
414.12,923.48
414.56,930.68
415.00,937.98
415.43,945.40
415.87,952.96
416.31,960.63
416.74,968.38
417.18,976.16
417.61,983.92
418.05,991.67
418.49,999.40
418.92,1007.14
419.36,1014.98
419.79,1022.98
420.23,1031.24
420.67,1039.84
421.10,1048.84
421.54,1058.26
421.97,1068.08
422.41,1078.27
422.84,1088.75
423.28,1099.45
423.71,1110.27
424.15,1121.14
424.59,1132.01
425.02,1142.83
425.46,1153.61
425.89,1164.34
426.33,1175.02
426.76,1185.69
427.20,1196.33
427.63,1206.94
428.07,1217.49
428.50,1227.97
428.94,1238.32
429.37,1248.54
429.81,1258.61
430.24,1268.54
430.68,1278.36
431.11,1288.13
431.55,1297.92
431.98,1307.80
432.42,1317.84
432.85,1328.09
433.28,1338.58
433.72,1349.30
434.15,1360.23
434.59,1371.33
435.02,1382.52
435.46,1393.75
435.89,1404.96
436.33,1416.11
436.76,1427.15
437.19,1438.08
437.63,1448.88
438.06,1459.55
438.50,1470.10
438.93,1480.49
439.37,1490.74
439.80,1500.80
440.23,1510.67
440.67,1520.32
441.10,1529.73
441.53,1538.91
441.97,1547.84
442.40,1556.56
442.84,1565.09
443.27,1573.46
443.70,1581.72
444.14,1589.90
444.57,1598.07
445.00,1606.27
445.44,1614.57
445.87,1623.02
446.30,1631.67
446.74,1640.59
447.17,1649.82
447.60,1659.42
448.04,1669.43
448.47,1679.89
448.90,1690.83
449.34,1702.27
449.77,1714.23
450.20,1726.70
450.64,1739.66
451.07,1753.08
451.50,1766.91
451.93,1781.09
452.37,1795.57
452.80,1810.31
453.23,1825.28
453.67,1840.50
454.10,1855.99
454.53,1871.82
454.96,1888.05
455.40,1904.75
455.83,1921.98
456.26,1939.75
456.69,1958.04
457.13,1976.78
457.56,1995.86
457.99,2015.14
458.42,2034.45
458.86,2053.65
459.29,2072.60
459.72,2091.22
460.15,2109.46
460.58,2127.29
461.02,2144.76
461.45,2161.90
461.88,2178.78
462.31,2195.45
462.74,2211.99
463.18,2228.45
463.61,2244.89
464.04,2261.37
464.47,2277.98
464.90,2294.83
465.33,2312.05
465.77,2329.79
466.20,2348.25
466.63,2367.62
467.06,2388.09
467.49,2409.82
467.92,2432.97
468.35,2457.60
468.78,2483.75
469.22,2511.40
469.65,2540.47
470.08,2570.86
470.51,2602.45
470.94,2635.13
471.37,2668.83
471.80,2703.48
472.23,2739.07
472.66,2775.63
473.10,2813.20
473.53,2851.80
473.96,2891.47
474.39,2932.23
474.82,2974.07
475.25,3016.94
475.68,3060.76
476.11,3105.45
476.54,3150.87
476.97,3196.88
477.40,3243.34
477.83,3290.14
478.26,3337.18
478.69,3384.41
479.12,3431.83
479.55,3479.48
479.98,3527.44
480.41,3575.78
480.84,3624.59
481.27,3673.88
481.70,3723.65
482.13,3773.84
482.56,3824.39
482.99,3875.20
483.42,3926.19
483.85,3977.31
484.28,4028.51
484.71,4079.74
485.14,4130.93
485.57,4181.93
486.00,4232.54
486.43,4282.51
486.86,4331.53
487.29,4379.30
487.72,4425.59
488.15,4470.25
488.58,4513.24
489.01,4554.63
489.44,4594.59
489.87,4633.33
490.30,4671.08
490.72,4708.06
491.15,4744.44
491.58,4780.38
492.01,4816.02
492.44,4851.53
492.87,4887.08
493.30,4922.88
493.73,4959.16
494.16,4996.10
494.59,5033.85
495.01,5072.44
495.44,5111.84
495.87,5151.93
496.30,5192.55
496.73,5233.52
497.16,5274.66
497.59,5315.84
498.01,5356.93
498.44,5397.77
498.87,5438.14
499.30,5477.74
499.73,5516.16
500.16,5552.92
500.58,5587.57
501.01,5619.72
501.44,5649.17
501.87,5675.94
502.30,5700.32
502.72,5722.82
503.15,5744.10
503.58,5764.82
504.01,5785.57
504.44,5806.73
504.86,5828.43
505.29,5850.59
505.72,5872.92
506.15,5895.08
506.57,5916.78
507.00,5937.85
507.43,5958.32
507.86,5978.40
508.28,5998.45
508.71,6018.88
509.14,6040.07
509.57,6062.31
509.99,6085.72
510.42,6110.35
510.85,6136.14
511.27,6163.03
511.70,6191.04
512.13,6220.27
512.56,6250.90
512.98,6283.14
513.41,6317.14
513.84,6352.88
514.26,6390.12
514.69,6428.32
515.12,6466.71
515.54,6504.39
515.97,6540.42
516.40,6574.04
516.82,6604.72
517.25,6632.34
517.68,6657.12
518.10,6679.56
518.53,6700.37
518.95,6720.23
519.38,6739.66
519.81,6758.95
520.23,6778.05
520.66,6796.62
521.09,6814.17
521.51,6830.17
521.94,6844.24
522.36,6856.23
522.79,6866.34
523.22,6875.05
523.64,6883.07
524.07,6891.16
524.49,6900.02
524.92,6910.10
525.34,6921.52
525.77,6934.09
526.20,6947.33
526.62,6960.64
527.05,6973.44
527.47,6985.32
527.90,6996.19
528.32,7006.28
528.75,7016.15
529.17,7026.49
529.60,7038.04
530.02,7051.37
530.45,7066.74
530.87,7084.03
531.30,7102.72
531.72,7122.05
532.15,7141.13
532.57,7159.15
533.00,7175.60
533.42,7190.33
533.85,7203.67
534.27,7216.32
534.70,7229.23
535.12,7243.38
535.55,7259.59
535.97,7278.34
536.40,7299.62
536.82,7322.93
537.25,7347.40
537.67,7371.88
538.09,7395.25
538.52,7416.57
538.94,7435.32
539.37,7451.46
539.79,7465.46
540.22,7478.20
540.64,7490.75
541.06,7504.16
541.49,7519.18
541.91,7536.11
542.34,7554.64
542.76,7573.90
543.18,7592.53
543.61,7608.99
544.03,7621.72
544.46,7629.55
544.88,7631.84
545.30,7628.68
545.73,7620.87
546.15,7609.85
546.57,7597.44
547.00,7585.56
547.42,7575.93
547.84,7569.84
548.27,7567.88
548.69,7570.00
549.11,7575.47
549.54,7583.14
549.96,7591.67
550.38,7599.79
550.81,7606.60
551.23,7611.72
551.65,7615.37
552.07,7618.34
552.50,7621.80
552.92,7627.09
553.34,7635.40
553.77,7647.56
554.19,7663.83
554.61,7683.80
555.03,7706.43
555.46,7730.23
555.88,7753.49
556.30,7774.58
556.72,7792.27
557.15,7805.96
557.57,7815.81
557.99,7822.78
558.41,7828.42
558.84,7834.73
559.26,7843.73
559.68,7857.19
560.10,7876.24
560.52,7901.24
560.95,7931.60
561.37,7965.93
561.79,8002.17
562.21,8037.92
562.63,8070.87
563.06,8099.10
563.48,8121.45
563.90,8137.72
564.32,8148.71
564.74,8156.17
565.16,8162.49
565.58,8170.40
566.01,8182.53
566.43,8200.99
566.85,8227.03
567.27,8260.78
567.69,8301.20
568.11,8346.14
568.53,8392.62
568.96,8437.16
569.38,8476.26
569.80,8506.84
570.22,8526.67
570.64,8534.60
571.06,8530.75
571.48,8516.47
571.90,8494.09
572.32,8466.63
572.74,8437.34
573.16,8409.27
573.58,8384.83
574.01,8365.52
574.43,8351.76
574.85,8342.87
575.27,8337.26
575.69,8332.71
576.11,8326.81
576.53,8317.31
576.95,8302.58
577.37,8281.85
577.79,8255.40
578.21,8224.51
578.63,8191.36
579.05,8158.65
579.47,8129.27
579.89,8105.87
580.31,8090.49
580.73,8084.25
581.15,8087.21
581.57,8098.39
581.99,8115.89
582.41,8137.19
582.83,8159.51
583.25,8180.22
583.67,8197.19
584.09,8209.13
584.51,8215.73
584.93,8217.78
585.34,8217.02
585.76,8215.93
586.18,8217.43
586.60,8224.47
587.02,8239.64
587.44,8264.82
587.86,8300.90
588.28,8347.68
588.70,8403.81
589.12,8467.00
589.54,8534.26
589.95,8602.29
590.37,8667.89
590.79,8728.35
591.21,8781.83
591.63,8827.57
592.05,8866.02
592.47,8898.77
592.89,8928.35
593.30,8957.96
593.72,8990.99
594.14,9030.64
594.56,9079.49
594.98,9139.14
595.40,9209.99
595.81,9291.11
596.23,9380.35
596.65,9474.51
597.07,9569.66
597.49,9661.56
597.90,9746.07
598.32,9819.61
598.74,9879.51
599.16,9924.28
599.58,9953.75
599.99,9969.11
600.41,9972.75
600.83,9967.99
601.25,9958.76
601.66,9949.11
602.08,9942.81
602.50,9942.93
602.92,9951.43
603.33,9969.03
603.75,9995.09
604.17,10027.68
604.59,10063.85
605.00,10099.95
605.42,10132.10
605.84,10156.62
606.25,10170.48
606.67,10171.60
607.09,10159.14
607.51,10133.53
607.92,10096.44
608.34,10050.54
608.76,9999.24
609.17,9946.31
609.59,9895.49
610.01,9850.10
610.42,9812.78
610.84,9785.22
611.26,9768.06
611.67,9760.90
612.09,9762.36
612.51,9770.34
612.92,9782.22
613.34,9795.18
613.75,9806.53
614.17,9814.01
614.59,9816.01
615.00,9811.75
615.42,9801.38
615.83,9785.99
616.25,9767.43
616.67,9748.19
617.08,9731.09
617.50,9719.00
617.91,9714.50
618.33,9719.66
618.75,9735.73
619.16,9763.06
619.58,9801.03
619.99,9848.06
620.41,9901.84
620.82,9959.47
621.24,10017.74
621.65,10073.49
622.07,10123.85
622.48,10166.50
622.90,10199.91
623.31,10223.45
623.73,10237.44
624.14,10243.11
624.56,10242.45
624.97,10238.04
625.39,10232.76
625.80,10229.56
626.22,10231.16
626.63,10239.77
627.05,10256.96
627.46,10283.42
627.88,10319.01
628.29,10362.70
628.71,10412.69
629.12,10466.60
629.54,10521.66
629.95,10574.98
630.37,10623.80
630.78,10665.75
631.19,10699.03
631.61,10722.61
632.02,10736.31
632.44,10740.76
632.85,10737.43
633.26,10728.40
633.68,10716.24
634.09,10703.73
634.51,10693.64
634.92,10688.49
635.33,10690.32
635.75,10700.57
636.16,10719.90
636.57,10748.24
636.99,10784.72
637.40,10827.84
637.82,10875.54
638.23,10925.40
638.64,10974.88
639.06,11021.47
639.47,11062.94
639.88,11097.53
640.30,11124.06
640.71,11142.08
641.12,11151.88
641.53,11154.44
641.95,11151.41
642.36,11144.90
642.77,11137.33
643.19,11131.21
643.60,11128.95
644.01,11132.59
644.42,11143.74
644.84,11163.35
645.25,11191.70
645.66,11228.36
646.08,11272.25
646.49,11321.72
646.90,11374.67
647.31,11428.76
647.73,11481.53
648.14,11530.64
648.55,11574.02
648.96,11610.04
649.37,11637.68
649.79,11656.57
650.20,11667.02
650.61,11670.08
651.02,11667.37
651.43,11661.03
651.85,11653.51
652.26,11647.37
652.67,11645.11
653.08,11648.92
653.49,11660.55
653.90,11681.12
654.32,11711.10
654.73,11750.21
655.14,11797.53
655.55,11851.51
655.96,11910.17
656.37,11971.20
656.78,12032.19
657.20,12090.78
657.61,12144.86
658.02,12192.72
658.43,12233.15
658.84,12265.54
659.25,12289.94
659.66,12306.97
660.07,12317.83
660.48,12324.16
660.90,12327.93
661.31,12331.27
661.72,12336.28
662.13,12344.95
662.54,12358.91
662.95,12379.40
663.36,12407.14
663.77,12442.33
664.18,12484.58
664.59,12533.01
665.00,12586.29
665.41,12642.76
665.82,12700.55
666.23,12757.68
666.64,12812.26
667.05,12862.57
667.46,12907.20
667.87,12945.12
668.28,12975.75
668.69,12998.97
669.10,13015.16
669.51,13025.08
669.92,13029.89
670.33,13031.03
670.74,13030.11
671.15,13028.89
671.56,13029.07
671.97,13032.31
672.38,13040.06
672.79,13053.50
673.20,13073.49
673.61,13100.50
674.02,13134.53
674.42,13175.16
674.83,13221.53
675.24,13272.36
675.65,13326.06
676.06,13380.79
676.47,13434.58
676.88,13485.46
677.29,13531.58
677.70,13571.30
678.11,13603.29
678.51,13626.63
678.92,13640.82
679.33,13645.87
679.74,13642.26
680.15,13630.96
680.56,13613.38
680.97,13591.33
681.37,13566.90
681.78,13542.36
682.19,13520.04
682.60,13502.14
683.01,13490.57
683.42,13486.82
683.82,13491.85
684.23,13505.98
684.64,13528.89
685.05,13559.66
685.45,13596.86
685.86,13638.65
686.27,13682.99
686.68,13727.73
687.09,13770.82
687.49,13810.38
687.90,13844.84
688.31,13872.95
688.72,13893.85
689.12,13907.07
689.53,13912.53
689.94,13910.51
690.35,13901.67
690.75,13886.98
691.16,13867.72
691.57,13845.41
691.97,13821.77
692.38,13798.64
692.79,13777.85
693.20,13761.19
693.60,13750.24
694.01,13746.27
694.42,13750.18
694.82,13762.40
695.23,13782.83
695.64,13810.89
696.04,13845.45
696.45,13885.02
696.86,13927.76
697.26,13971.64
697.67,14014.63
698.07,14054.75
698.48,14090.30
698.89,14119.89
699.29,14142.55
699.70,14157.75
700.11,14165.41
700.51,14165.89
700.92,14159.90
701.32,14148.50
701.73,14132.97
702.14,14114.80
702.54,14095.58
702.95,14076.96
703.35,14060.59
703.76,14048.01
704.16,14040.62
704.57,14039.61
704.97,14045.86
705.38,14059.89
705.79,14081.82
706.19,14111.32
706.60,14147.63
707.00,14189.58
707.41,14235.65
707.81,14284.05
708.22,14332.86
708.62,14380.10
709.03,14423.91
709.43,14462.60
709.84,14494.77
710.24,14519.38
710.65,14535.76
711.05,14543.69
711.46,14543.35
711.86,14535.34
712.27,14520.64
712.67,14500.58
713.07,14476.77
713.48,14451.02
713.88,14425.28
714.29,14401.51
714.69,14381.61
715.10,14367.24
715.50,14359.82
715.90,14360.37
716.31,14369.51
716.71,14387.41
717.12,14413.84
717.52,14448.14
717.92,14489.34
718.33,14536.17
718.73,14587.14
719.14,14640.60
719.54,14694.82
719.94,14748.02
720.35,14798.46
720.75,14844.49
721.15,14884.60
721.56,14917.53
721.96,14942.28
722.36,14958.23
722.77,14965.09
723.17,14963.04
723.57,14952.60
723.98,14934.71
724.38,14910.63
724.78,14881.92
725.19,14850.32
725.59,14817.72
725.99,14786.04
726.39,14757.16
726.80,14732.86
727.20,14714.69
727.60,14703.95
728.00,14701.61
728.41,14708.25
728.81,14724.06
729.21,14748.81
729.61,14781.84
730.02,14822.12
730.42,14868.26
730.82,14918.59
731.22,14971.23
731.63,15024.17
732.03,15075.33
732.43,15122.70
732.83,15164.36
733.23,15198.61
733.64,15223.99
734.04,15239.39
734.44,15244.05
734.84,15237.62
735.24,15220.19
735.64,15192.27
736.05,15154.82
736.45,15109.16
736.85,15056.96
737.25,15000.17
737.65,14940.88
738.05,14881.30
738.45,14823.57
738.86,14769.68
739.26,14721.39
739.66,14680.10
740.06,14646.82
740.46,14622.13
740.86,14606.16
741.26,14598.64
741.66,14598.93
742.06,14606.07
742.46,14618.90
742.87,14636.09
743.27,14656.22
743.67,14677.88
744.07,14699.66
744.47,14720.26
744.87,14738.45
745.27,14753.20
745.67,14763.59
746.07,14768.94
746.47,14768.76
746.87,14762.81
747.27,14751.13
747.67,14733.99
748.07,14711.98
748.47,14685.95
748.87,14657.04
749.27,14626.60
749.67,14596.20
750.07,14567.54
750.47,14542.39
750.87,14522.54
751.27,14509.63
751.67,14505.16
752.07,14510.31
752.47,14525.93
752.87,14552.42
753.27,14589.75
753.66,14637.35
754.06,14694.20
754.46,14758.81
754.86,14829.28
755.26,14903.37
755.66,14978.60
756.06,15052.32
756.46,15121.82
756.86,15184.46
757.26,15237.72
757.65,15279.32
758.05,15307.30
758.45,15320.04
758.85,15316.35
759.25,15295.48
759.65,15257.10
760.05,15201.37
760.44,15128.89
760.84,15040.71
761.24,14938.31
761.64,14823.58
762.04,14698.81
762.44,14566.62
762.83,14429.89
763.23,14291.67
763.63,14155.07
764.03,14023.10
764.43,13898.55
764.82,13783.83
765.22,13680.87
765.62,13591.01
766.02,13514.94
766.41,13452.74
766.81,13403.87
767.21,13367.28
767.61,13341.50
768.00,13324.79
768.40,13315.24
768.80,13310.89
769.20,13309.83
769.59,13310.28
769.99,13310.60
770.39,13309.34
770.79,13305.26
771.18,13297.23
771.58,13284.30
771.98,13265.63
772.37,13240.49
772.77,13208.26
773.17,13168.43
773.56,13120.63
773.96,13064.68
774.36,13000.62
774.75,12928.76
775.15,12849.75
775.55,12764.57
775.94,12674.57
776.34,12581.39
776.73,12486.98
777.13,12393.45
777.53,12303.02
777.92,12217.84
778.32,12139.93
778.72,12071.06
779.11,12012.63
779.51,11965.67
779.90,11930.72
780.30,11907.95
780.69,11897.04
781.09,11897.36
781.49,11907.89
781.88,11927.37
782.28,11954.29
782.67,11986.97
783.07,12023.62
783.46,12062.32
783.86,12101.17
784.25,12138.24
784.65,12171.68
785.04,12199.77
785.44,12220.94
785.83,12233.86
786.23,12237.46
786.62,12230.96
787.02,12213.90
787.41,12186.14
787.81,12147.85
788.20,12099.51
788.60,12041.88
788.99,11975.94
789.39,11902.91
789.78,11824.18
790.18,11741.30
790.57,11655.91
790.97,11569.77
791.36,11484.65
791.75,11402.36
792.15,11324.70
792.54,11253.38
792.94,11190.04
793.33,11136.10
793.72,11092.75
794.12,11060.88
794.51,11040.96
794.91,11033.03
795.30,11036.64
795.69,11050.87
796.09,11074.37
796.48,11105.40
796.87,11141.99
797.27,11182.01
797.66,11223.34
798.05,11263.96
798.45,11302.02
798.84,11335.93
799.23,11364.33
799.63,11386.14
800.02,11400.46
800.41,11406.61
800.81,11404.07
801.20,11392.46
801.59,11371.57
801.99,11341.37
802.38,11302.01
802.77,11253.88
803.16,11197.59
803.56,11133.96
803.95,11064.05
804.34,10989.05
804.73,10910.31
805.13,10829.25
805.52,10747.30
805.91,10665.91
806.30,10586.45
806.69,10510.23
807.09,10438.48
807.48,10372.33
807.87,10312.77
808.26,10260.71
808.66,10216.86
809.05,10181.80
809.44,10155.86
809.83,10139.11
810.22,10131.34
810.61,10131.99
811.01,10140.21
811.40,10154.82
811.79,10174.40
812.18,10197.33
812.57,10221.94
812.96,10246.54
813.35,10269.53
813.75,10289.51
814.14,10305.27
814.53,10315.85
814.92,10320.50
815.31,10318.70
815.70,10310.03
816.09,10294.22
816.48,10271.06
816.87,10240.37
817.26,10202.03
817.65,10156.00
818.04,10102.33
818.44,10041.24
818.83,9973.16
819.22,9898.75
819.61,9818.93
820.00,9734.89
820.39,9648.02
820.78,9559.87
821.17,9472.08
821.56,9386.27
821.95,9303.98
822.34,9226.59
822.73,9155.27
823.12,9090.95
823.51,9034.29
823.90,8985.73
824.29,8945.49
824.68,8913.58
825.07,8889.86
825.46,8874.05
825.85,8865.76
826.24,8864.48
826.62,8869.58
827.01,8880.34
827.40,8895.89
827.79,8915.28
828.18,8937.41
828.57,8961.12
828.96,8985.16
829.35,9008.28
829.74,9029.23
830.13,9046.83
830.52,9060.01
830.90,9067.84
831.29,9069.59
831.68,9064.69
832.07,9052.79
832.46,9033.74
832.85,9007.58
833.24,8974.49
833.62,8934.83
834.01,8889.09
834.40,8837.87
834.79,8781.85
835.18,8721.82
835.57,8658.61
835.95,8593.13
836.34,8526.31
836.73,8459.14
837.12,8392.60
837.51,8327.69
837.89,8265.39
838.28,8206.67
838.67,8152.45
839.06,8103.57
839.44,8060.80
839.83,8024.77
840.22,7995.98
840.61,7974.74
840.99,7961.17
841.38,7955.20
841.77,7956.50
842.16,7964.59
842.54,7978.75
842.93,7998.13
843.32,8021.75
843.70,8048.57
844.09,8077.47
844.48,8107.37
844.86,8137.20
845.25,8165.95
845.64,8192.69
846.02,8216.57
846.41,8236.85
846.80,8252.89
847.18,8264.13
847.57,8270.14
847.96,8270.56
848.34,8265.17
848.73,8253.83
849.12,8236.56
849.50,8213.49
849.89,8184.90
850.27,8151.22
850.66,8113.03
851.05,8071.03
851.43,8025.99
851.82,7978.77
852.20,7930.22
852.59,7881.18
852.97,7832.43
853.36,7784.67
853.75,7738.51
854.13,7694.51
854.52,7653.15
854.90,7614.89
855.29,7580.14
855.67,7549.31
856.06,7522.78
856.44,7500.85
856.83,7483.80
857.21,7471.75
857.60,7464.72
857.98,7462.58
858.37,7465.06
858.75,7471.75
859.14,7482.15
859.52,7495.66
859.91,7511.66
860.29,7529.51
860.68,7548.58
861.06,7568.28
861.44,7588.02
861.83,7607.28
862.21,7625.53
862.60,7642.30
862.98,7657.14
863.37,7669.62
863.75,7679.40
864.13,7686.19
864.52,7689.79
864.90,7690.09
865.29,7687.10
865.67,7680.90
866.05,7671.66
866.44,7659.61
866.82,7644.99
867.20,7628.03
867.59,7608.94
867.97,7587.89
868.35,7564.97
868.74,7540.26
869.12,7513.81
869.50,7485.70
869.89,7456.02
870.27,7424.97
870.65,7392.84
871.04,7360.01
871.42,7327.01
871.80,7294.41
872.19,7262.88
872.57,7233.11
872.95,7205.79
873.33,7181.56
873.72,7160.97
874.10,7144.50
874.48,7132.51
874.86,7125.23
875.25,7122.78
875.63,7125.18
876.01,7132.32
876.39,7144.01
876.77,7159.94
877.16,7179.75
877.54,7202.96
877.92,7229.09
878.30,7257.56
878.68,7287.82
879.07,7319.33
879.45,7351.62
879.83,7384.27
880.21,7417.01
880.59,7449.67
880.97,7482.21
881.36,7514.70
881.74,7547.27
882.12,7580.12
882.50,7613.43
882.88,7647.35
883.26,7681.98
883.64,7717.32
884.02,7753.32
884.41,7789.88
884.79,7826.83
885.17,7864.00
885.55,7901.25
885.93,7938.48
886.31,7975.61
886.69,8012.64
887.07,8049.61
887.45,8086.57
887.83,8123.61
888.21,8160.76
888.59,8198.04
888.97,8235.42
889.35,8272.78
889.73,8309.97
890.11,8346.76
890.49,8382.85
890.87,8417.93
891.25,8451.62
891.63,8483.52
892.01,8513.20
892.39,8540.20
892.77,8564.03
893.15,8584.19
893.53,8600.16
893.91,8611.44
894.29,8617.52
894.67,8617.97
895.05,8612.36
895.43,8600.38
895.81,8581.80
896.19,8556.46
896.57,8524.31
896.95,8485.39
897.32,8439.80
897.70,8387.71
898.08,8329.32
898.46,8264.88
898.84,8194.69
899.22,8119.06
899.60,8038.39
899.98,7953.13
900.35,7863.81
900.73,7771.05
901.11,7675.52
901.49,7577.94
901.87,7479.06
902.25,7379.58
902.63,7280.14
903.00,7181.29
903.38,7083.46
903.76,6986.94
904.14,6891.94
904.52,6798.56
904.89,6706.88
905.27,6616.95
905.65,6528.87
906.03,6442.78
906.40,6358.90
906.78,6277.48
907.16,6198.82
907.54,6123.23
907.91,6050.94
908.29,5982.15
908.67,5916.93
909.05,5855.28
909.42,5797.08
909.80,5742.17
910.18,5690.34
910.55,5641.40
910.93,5595.19
911.31,5551.62
911.68,5510.65
912.06,5472.33
912.44,5436.74
912.82,5403.98
913.19,5374.16
913.57,5347.34
913.94,5323.51
914.32,5302.59
914.70,5284.41
915.07,5268.69
915.45,5255.06
915.83,5243.09
916.20,5232.29
916.58,5222.16
916.95,5212.21
917.33,5201.97
917.71,5191.05
918.08,5179.13
918.46,5165.96
918.83,5151.37
919.21,5135.28
919.58,5117.62
919.96,5098.41
920.34,5077.66
920.71,5055.40
921.09,5031.67
921.46,5006.50
921.84,4979.93
922.21,4952.02
922.59,4922.84
922.96,4892.49
923.34,4861.06
923.71,4828.71
924.09,4795.55
924.46,4761.76
924.84,4727.44
925.21,4692.72
925.59,4657.66
925.96,4622.34
926.34,4586.79
926.71,4551.06
927.08,4515.18
927.46,4479.27
927.83,4443.44
928.21,4407.89
928.58,4372.84
928.96,4338.54
929.33,4305.22
929.70,4273.11
930.08,4242.37
930.45,4213.09
930.83,4185.29
931.20,4158.93
931.57,4133.90
931.95,4110.08
932.32,4087.32
932.69,4065.50
933.07,4044.51
933.44,4024.29
933.81,4004.80
934.19,3986.05
934.56,3968.04
934.93,3950.78
935.31,3934.29
935.68,3918.53
936.05,3903.46
936.43,3888.99
936.80,3875.01
937.17,3861.38
937.54,3847.93
937.92,3834.52
938.29,3821.00
938.66,3807.24
939.03,3793.16
939.41,3778.71
939.78,3763.90
940.15,3748.76
940.52,3733.34
940.90,3717.73
941.27,3701.96
941.64,3686.08
942.01,3670.06
942.38,3653.85
942.76,3637.35
943.13,3620.42
943.50,3602.91
943.87,3584.70
944.24,3565.70
944.61,3545.86
944.99,3525.19
945.36,3503.78
945.73,3481.72
946.10,3459.17
946.47,3436.24
946.84,3413.04
947.21,3389.65
947.59,3366.07
947.96,3342.28
948.33,3318.23
948.70,3293.85
949.07,3269.08
949.44,3243.90
949.81,3218.32
950.18,3192.38
950.55,3166.19
950.92,3139.88
951.29,3113.59
951.66,3087.47
952.03,3061.68
952.41,3036.34
952.78,3011.55
953.15,2987.40
953.52,2963.95
953.89,2941.24
954.26,2919.32
954.63,2898.21
955.00,2877.92
955.37,2858.49
955.74,2839.92
956.11,2822.23
956.48,2805.39
956.84,2789.38
957.21,2774.15
957.58,2759.63
957.95,2745.72
958.32,2732.32
958.69,2719.32
959.06,2706.59
959.43,2694.03
959.80,2681.56
960.17,2669.09
960.54,2656.56
960.91,2643.91
961.28,2631.09
961.64,2618.03
962.01,2604.64
962.38,2590.82
962.75,2576.47
963.12,2561.50
963.49,2545.82
963.86,2529.37
964.22,2512.15
964.59,2494.19
964.96,2475.57
965.33,2456.43
965.70,2436.90
966.07,2417.19
966.43,2397.47
966.80,2377.93
967.17,2358.74
967.54,2340.05
967.91,2321.95
968.27,2304.52
968.64,2287.75
969.01,2271.62
969.38,2256.05
969.74,2240.91
970.11,2226.08
970.48,2211.42
970.85,2196.81
971.21,2182.14
971.58,2167.36
971.95,2152.43
972.31,2137.36
972.68,2122.18
973.05,2106.95
973.42,2091.75
973.78,2076.64
974.15,2061.71
974.52,2047.03
974.88,2032.64
975.25,2018.58
975.62,2004.86
975.98,1991.44
976.35,1978.28
976.72,1965.30
977.08,1952.42
977.45,1939.54
977.81,1926.58
978.18,1913.46
978.55,1900.13
978.91,1886.56
979.28,1872.76
979.64,1858.75
980.01,1844.57
980.38,1830.28
980.74,1815.94
981.11,1801.61
981.47,1787.34
981.84,1773.20
982.20,1759.22
982.57,1745.43
982.93,1731.86
983.30,1718.52
983.66,1705.42
984.03,1692.56
984.39,1679.94
984.76,1667.57
985.12,1655.42
985.49,1643.50
985.85,1631.80
986.22,1620.29
986.58,1608.94
986.95,1597.72
987.31,1586.59
987.68,1575.51
988.04,1564.46
988.41,1553.40
988.77,1542.32
989.13,1531.22
989.50,1520.11
989.86,1508.99
990.23,1497.87
990.59,1486.76
990.96,1475.66
991.32,1464.58
991.68,1453.54
992.05,1442.54
992.41,1431.62
992.77,1420.81
993.14,1410.14
993.50,1399.66
993.86,1389.39
994.23,1379.32
994.59,1369.46
994.95,1359.75
995.32,1350.15
995.68,1340.60
996.04,1331.05
996.41,1321.47
996.77,1311.85
997.13,1302.21
997.50,1292.60
997.86,1283.09
998.22,1273.74
998.58,1264.63
998.95,1255.80
999.31,1247.29
999.67,1239.08
1000.03,1231.18
1000.40,1223.54
1000.76,1216.13
1001.12,1208.91
1001.48,1201.84
1001.84,1194.88
1002.21,1188.00
1002.57,1181.17
1002.93,1174.37
1003.29,1167.58
1003.65,1160.77
1004.02,1153.96
1004.38,1147.15
1004.74,1140.35
1005.10,1133.62
1005.46,1127.00
1005.82,1120.54
1006.19,1114.29
1006.55,1108.28
1006.91,1102.50
1007.27,1096.91
1007.63,1091.41
1007.99,1085.89
1008.35,1080.19
1008.71,1074.18
1009.07,1067.70
1009.43,1060.64
1009.80,1052.94
1010.16,1044.59
1010.52,1035.64
1010.88,1026.18
1011.24,1016.37
1011.60,1006.36
1011.96,996.34
1012.32,986.47
1012.68,976.89
1013.04,967.71
1013.40,958.99
1013.76,950.77
1014.12,943.07
1014.48,935.88
1014.84,929.20
1015.20,923.03
1015.56,917.35
1015.92,912.15
1016.28,907.42
1016.64,903.10
1017.00,899.12
1017.36,895.38
1017.72,891.74
1018.07,888.05
1018.43,884.17
1018.79,879.97
1019.15,875.39
1019.51,870.39
1019.87,865.02
1020.23,859.39
1020.59,853.64
1020.95,847.98
1021.31,842.58
1021.66,837.62
1022.02,833.26
1022.38,829.56
1022.74,826.58
1023.10,824.28
1023.46,822.59
1023.81,821.39
1024.17,820.54
1024.53,819.91
1024.89,819.32
1025.25,818.67
1025.60,817.86
1025.96,816.78
1026.32,815.31
1026.68,813.32
1027.04,811.60
1027.39,809.60
1027.75,805.86
1028.11,800.61
1028.47,794.10
1028.82,818.51
1029.18,795.66
1029.54,739.77
1029.90,739.77
1030.25,739.77
