wavelength,counts
188.65,246.26
189.10,246.26
189.56,246.26
190.01,246.26
190.47,246.26
190.92,276.36
191.37,289.04
191.83,303.50
192.28,319.52
192.74,336.78
193.19,354.89
193.64,373.40
194.10,392.59
194.55,412.25
195.01,432.20
195.46,452.23
195.91,472.20
196.37,491.95
196.82,511.32
197.27,530.20
197.73,548.46
198.18,565.98
198.63,582.67
199.09,598.43
199.54,613.16
199.99,626.79
200.45,639.28
200.90,650.58
201.35,660.68
201.81,669.59
202.26,677.36
202.71,684.04
203.17,689.70
203.62,694.42
204.07,698.30
204.53,701.43
204.98,703.90
205.43,705.78
205.89,707.14
206.34,708.05
206.79,708.55
207.25,708.70
207.70,708.53
208.15,708.08
208.60,707.38
209.06,706.49
209.51,705.45
209.96,704.29
210.41,703.07
210.87,701.82
211.32,700.58
211.77,699.37
212.23,698.22
212.68,697.13
213.13,696.10
213.58,695.14
214.04,694.22
214.49,693.36
214.94,692.54
215.39,691.75
215.84,690.99
216.30,690.26
216.75,689.56
217.20,688.87
217.65,688.21
218.11,687.57
218.56,686.95
219.01,686.34
219.46,685.76
219.91,685.20
220.37,684.69
220.82,684.23
221.27,683.84
221.72,683.53
222.17,683.31
222.63,683.19
223.08,683.15
223.53,683.20
223.98,683.31
224.43,683.47
224.88,683.64
225.34,683.81
225.79,683.97
226.24,684.12
226.69,684.25
227.14,684.37
227.59,684.51
228.04,684.67
228.50,684.87
228.95,685.11
229.40,685.39
229.85,685.71
230.30,686.03
230.75,686.36
231.20,686.66
231.66,686.92
232.11,687.13
232.56,687.27
233.01,687.36
233.46,687.38
233.91,687.36
234.36,687.31
234.81,687.23
235.26,687.16
235.71,687.09
236.17,687.05
236.62,687.06
237.07,687.13
237.52,687.28
237.97,687.53
238.42,687.88
238.87,688.35
239.32,688.94
239.77,689.65
240.22,690.46
240.67,691.38
241.12,692.36
241.57,693.39
242.02,694.43
242.47,695.45
242.92,696.39
243.37,697.23
243.82,697.92
244.27,698.45
244.72,698.81
245.18,699.01
245.63,699.08
246.08,699.05
246.53,698.98
246.98,698.91
247.43,698.88
247.88,698.93
248.33,699.05
248.78,699.24
249.23,699.46
249.68,699.67
250.12,699.81
250.57,699.86
251.02,699.76
251.47,699.51
251.92,699.11
252.37,698.59
252.82,697.99
253.27,697.35
253.72,696.73
254.17,696.18
254.62,695.73
255.07,695.40
255.52,695.19
255.97,695.08
256.42,695.04
256.87,695.06
257.32,695.10
257.77,695.13
258.22,695.14
258.66,695.12
259.11,695.09
259.56,695.04
260.01,694.99
260.46,694.97
260.91,694.96
261.36,694.98
261.81,695.02
262.26,695.08
262.71,695.12
263.15,695.13
263.60,695.08
264.05,694.97
264.50,694.76
264.95,694.45
265.40,694.04
265.85,693.55
266.30,693.01
266.74,692.44
267.19,691.90
267.64,691.44
268.09,691.10
268.54,690.94
268.99,691.00
269.43,691.30
269.88,691.84
270.33,692.62
270.78,693.60
271.23,694.75
271.68,696.00
272.12,697.31
272.57,698.61
273.02,699.85
273.47,700.98
273.92,701.97
274.36,702.80
274.81,703.45
275.26,703.91
275.71,704.19
276.16,704.30
276.60,704.24
277.05,704.05
277.50,703.74
277.95,703.33
278.39,702.87
278.84,702.37
279.29,701.87
279.74,701.39
280.19,700.98
280.63,700.65
281.08,700.44
281.53,700.35
281.98,700.41
282.42,700.63
282.87,700.98
283.32,701.47
283.76,702.06
284.21,702.72
284.66,703.38
285.11,704.01
285.55,704.54
286.00,704.92
286.45,705.12
286.89,705.11
287.34,704.88
287.79,704.46
288.23,703.86
288.68,703.14
289.13,702.34
289.58,701.51
290.02,700.72
290.47,699.99
290.92,699.38
291.36,698.91
291.81,698.60
292.26,698.47
292.70,698.53
293.15,698.77
293.60,699.19
294.04,699.78
294.49,700.52
294.93,701.37
295.38,702.32
295.83,703.31
296.27,704.31
296.72,705.28
297.17,706.16
297.61,706.94
298.06,707.59
298.50,708.08
298.95,708.41
299.40,708.59
299.84,708.63
300.29,708.54
300.73,708.35
301.18,708.08
301.63,707.76
302.07,707.42
302.52,707.09
302.96,706.79
303.41,706.54
303.85,706.36
304.30,706.26
304.75,706.24
305.19,706.30
305.64,706.42
306.08,706.59
306.53,706.78
306.97,706.97
307.42,707.15
307.86,707.30
308.31,707.43
308.75,707.52
309.20,707.61
309.65,707.69
310.09,707.79
310.54,707.92
310.98,708.07
311.43,708.25
311.87,708.46
312.32,708.66
312.76,708.85
313.21,709.02
313.65,709.15
314.10,709.26
314.54,709.33
314.99,709.41
315.43,709.50
315.87,709.64
316.32,709.85
316.76,710.14
317.21,710.52
317.65,710.99
318.10,711.53
318.54,712.13
318.99,712.77
319.43,713.41
319.88,714.05
320.32,714.67
320.76,715.26
321.21,715.81
321.65,716.32
322.10,716.79
322.54,717.23
322.99,717.64
323.43,718.03
323.87,718.41
324.32,718.79
324.76,719.18
325.21,719.59
325.65,720.03
326.09,720.51
326.54,721.04
326.98,721.62
327.42,722.26
327.87,722.96
328.31,723.71
328.76,724.51
329.20,725.35
329.64,726.22
330.09,727.11
330.53,728.02
330.97,728.94
331.42,729.89
331.86,730.86
332.30,731.87
332.75,732.92
333.19,734.01
333.63,735.13
334.08,736.30
334.52,737.49
334.96,738.69
335.41,739.92
335.85,741.16
336.29,742.41
336.74,743.70
337.18,745.03
337.62,746.42
338.06,747.88
338.51,749.42
338.95,751.05
339.39,752.74
339.84,754.50
340.28,756.31
340.72,758.13
341.16,759.97
341.61,761.81
342.05,763.64
342.49,765.46
342.93,767.28
343.38,769.11
343.82,770.94
344.26,772.77
344.70,774.58
345.15,776.37
345.59,778.11
346.03,779.76
346.47,781.29
346.92,782.70
347.36,783.95
347.80,785.05
348.24,785.99
348.68,786.78
349.13,787.45
349.57,788.02
350.01,788.50
350.45,788.94
350.89,789.34
351.34,789.74
351.78,790.16
352.22,790.62
352.66,791.14
353.10,791.73
353.54,792.40
353.99,793.16
354.43,793.99
354.87,794.89
355.31,795.83
355.75,796.79
356.19,797.73
356.63,798.61
357.08,799.41
357.52,800.09
357.96,800.65
358.40,801.06
358.84,801.34
359.28,801.50
359.72,801.56
360.16,801.56
360.60,801.54
361.05,801.54
361.49,801.57
361.93,801.67
362.37,801.82
362.81,802.03
363.25,802.27
363.69,802.48
364.13,802.63
364.57,802.68
365.01,802.58
365.45,802.31
365.89,801.86
366.33,801.24
366.78,800.48
367.22,799.60
367.66,798.64
368.10,797.67
368.54,796.70
368.98,795.79
369.42,794.94
369.86,794.16
370.30,793.47
370.74,792.82
371.18,792.20
371.62,791.58
372.06,790.91
372.50,790.14
372.94,789.26
373.38,788.23
373.82,787.04
374.26,785.69
374.70,784.19
375.14,782.58
375.58,780.90
376.02,779.19
376.46,777.49
376.90,775.85
377.34,774.31
377.78,772.88
378.21,771.57
378.65,770.39
379.09,769.33
379.53,768.37
379.97,767.48
380.41,766.65
380.85,765.84
381.29,765.03
381.73,764.21
382.17,763.36
382.61,762.48
383.05,761.58
383.49,760.67
383.93,759.78
384.36,758.94
384.80,758.18
385.24,757.53
385.68,757.01
386.12,756.63
386.56,756.40
387.00,756.30
387.44,756.30
387.87,756.35
388.31,756.43
388.75,756.50
389.19,756.50
389.63,756.44
390.07,756.28
390.51,756.04
390.94,755.72
391.38,755.33
391.82,754.91
392.26,754.45
392.70,753.99
393.14,753.53
393.57,753.08
394.01,752.63
394.45,752.20
394.89,751.77
395.33,751.36
395.76,750.97
396.20,750.59
396.64,750.24
397.08,749.93
397.52,749.67
397.95,749.45
398.39,749.29
398.83,749.19
399.27,749.17
399.70,749.23
400.14,749.37
400.58,749.62
401.02,749.98
401.45,750.44
401.89,751.00
402.33,751.66
402.77,752.37
403.20,753.12
403.64,753.84
404.08,754.51
404.52,755.08
404.95,755.51
405.39,755.79
405.83,755.91
406.26,755.87
406.70,755.70
407.14,755.43
407.58,755.09
408.01,754.72
408.45,754.35
408.89,754.02
409.32,753.73
409.76,753.51
410.20,753.36
410.63,753.28
411.07,753.28
411.51,753.34
411.94,753.45
412.38,753.61
412.82,753.79
413.25,753.97
413.69,754.13
414.12,754.26
414.56,754.34
415.00,754.36
415.43,754.32
415.87,754.23
416.31,754.11
416.74,753.97
417.18,753.85
417.61,753.77
418.05,753.75
418.49,753.80
418.92,753.96
419.36,754.21
419.79,754.57
420.23,755.04
420.67,755.63
421.10,756.32
421.54,757.13
421.97,758.06
422.41,759.09
422.84,760.21
423.28,761.41
423.71,762.66
424.15,763.92
424.59,765.17
425.02,766.36
425.46,767.46
425.89,768.46
426.33,769.33
426.76,770.08
427.20,770.72
427.63,771.27
428.07,771.76
428.50,772.21
428.94,772.64
429.37,773.06
429.81,773.47
430.24,773.86
430.68,774.22
431.11,774.53
431.55,774.76
431.98,774.91
432.42,774.96
432.85,774.92
433.28,774.81
433.72,774.64
434.15,774.44
434.59,774.26
435.02,774.12
435.46,774.05
435.89,774.07
436.33,774.19
436.76,774.40
437.19,774.70
437.63,775.04
438.06,775.41
438.50,775.75
438.93,776.03
439.37,776.23
439.80,776.32
440.23,776.30
440.67,776.18
441.10,776.00
441.53,775.80
441.97,775.64
442.40,775.58
442.84,775.68
443.27,775.97
443.70,776.48
444.14,777.21
444.57,778.15
445.00,779.24
445.44,780.44
445.87,781.66
446.30,782.82
446.74,783.85
447.17,784.68
447.60,785.27
448.04,785.59
448.47,785.63
448.90,785.44
449.34,785.06
449.77,784.57
450.20,784.03
450.64,783.55
451.07,783.21
451.50,783.07
451.93,783.20
452.37,783.61
452.80,784.31
453.23,785.28
453.67,786.47
454.10,787.80
454.53,789.22
454.96,790.64
455.40,792.00
455.83,793.23
456.26,794.31
456.69,795.21
457.13,795.93
457.56,796.46
457.99,796.84
458.42,797.08
458.86,797.21
459.29,797.27
459.72,797.28
460.15,797.29
460.58,797.33
461.02,797.45
461.45,797.70
461.88,798.15
462.31,798.84
462.74,799.82
463.18,801.13
463.61,802.77
464.04,804.74
464.47,807.00
464.90,809.49
465.33,812.13
465.77,814.82
466.20,817.47
466.63,819.98
467.06,822.27
467.49,824.30
467.92,826.03
468.35,827.49
468.78,828.69
469.22,829.69
469.65,830.56
470.08,831.37
470.51,832.19
470.94,833.09
471.37,834.12
471.80,835.33
472.23,836.78
472.66,838.49
473.10,840.51
473.53,842.87
473.96,845.62
474.39,848.77
474.82,852.33
475.25,856.32
475.68,860.68
476.11,865.38
476.54,870.34
476.97,875.46
477.40,880.65
477.83,885.79
478.26,890.78
478.69,895.56
479.12,900.04
479.55,904.18
479.98,907.96
480.41,911.38
480.84,914.44
481.27,917.18
481.70,919.62
482.13,921.84
482.56,923.88
482.99,925.83
483.42,927.76
483.85,929.77
484.28,931.93
484.71,934.34
485.14,937.06
485.57,940.15
486.00,943.66
486.43,947.62
486.86,952.05
487.29,956.96
487.72,962.33
488.15,968.13
488.58,974.32
489.01,980.82
489.44,987.58
489.87,994.48
490.30,1001.43
490.72,1008.31
491.15,1015.01
491.58,1021.41
492.01,1027.41
492.44,1032.89
492.87,1037.76
493.30,1041.97
493.73,1045.46
494.16,1048.21
494.59,1050.24
495.01,1051.59
495.44,1052.36
495.87,1052.66
496.30,1052.64
496.73,1052.45
497.16,1052.26
497.59,1052.21
498.01,1052.44
498.44,1053.05
498.87,1054.12
499.30,1055.67
499.73,1057.73
500.16,1060.27
500.58,1063.26
501.01,1066.67
501.44,1070.44
501.87,1074.55
502.30,1078.95
502.72,1083.62
503.15,1088.53
503.58,1093.68
504.01,1099.05
504.44,1104.64
504.86,1110.42
505.29,1116.37
505.72,1122.42
506.15,1128.49
506.57,1134.50
507.00,1140.29
507.43,1145.74
507.86,1150.70
508.28,1155.04
508.71,1158.66
509.14,1161.51
509.57,1163.60
509.99,1164.97
510.42,1165.74
510.85,1166.04
511.27,1166.02
511.70,1165.84
512.13,1165.62
512.56,1165.45
512.98,1165.38
513.41,1165.44
513.84,1165.61
514.26,1165.86
514.69,1166.16
515.12,1166.49
515.54,1166.83
515.97,1167.20
516.40,1167.63
516.82,1168.17
517.25,1168.90
517.68,1169.87
518.10,1171.17
518.53,1172.87
518.95,1175.05
519.38,1177.77
519.81,1181.07
520.23,1185.00
520.66,1189.53
521.09,1194.65
521.51,1200.27
521.94,1206.30
522.36,1212.60
522.79,1219.04
523.22,1225.48
523.64,1231.80
524.07,1237.90
524.49,1243.71
524.92,1249.20
525.34,1254.37
525.77,1259.19
526.20,1263.68
526.62,1267.80
527.05,1271.50
527.47,1274.70
527.90,1277.31
528.32,1279.21
528.75,1280.31
529.17,1280.56
529.60,1279.92
530.02,1278.45
530.45,1276.24
530.87,1273.43
531.30,1270.21
531.72,1266.79
532.15,1263.36
532.57,1260.10
533.00,1257.14
533.42,1254.58
533.85,1252.46
534.27,1250.80
534.70,1249.57
535.12,1248.75
535.55,1248.31
535.97,1248.21
536.40,1248.43
536.82,1248.97
537.25,1249.79
537.67,1250.91
538.09,1252.28
538.52,1253.90
538.94,1255.73
539.37,1257.75
539.79,1259.96
540.22,1262.35
540.64,1264.98
541.06,1267.90
541.49,1271.19
541.91,1274.94
542.34,1279.22
542.76,1284.07
543.18,1289.51
543.61,1295.47
544.03,1301.85
544.46,1308.51
544.88,1315.25
545.30,1321.88
545.73,1328.22
546.15,1334.09
546.57,1339.40
547.00,1344.09
547.42,1348.17
547.84,1351.68
548.27,1354.72
548.69,1357.37
549.11,1359.71
549.54,1361.79
549.96,1363.61
550.38,1365.11
550.81,1366.22
551.23,1366.81
551.65,1366.77
552.07,1366.01
552.50,1364.46
552.92,1362.15
553.34,1359.14
553.77,1355.58
554.19,1351.63
554.61,1347.52
555.03,1343.46
555.46,1339.61
555.88,1336.12
556.30,1333.07
556.72,1330.47
557.15,1328.30
557.57,1326.49
557.99,1324.96
558.41,1323.64
558.84,1322.47
559.26,1321.45
559.68,1320.59
560.10,1319.96
560.52,1319.63
560.95,1319.68
561.37,1320.19
561.79,1321.20
562.21,1322.75
562.63,1324.83
563.06,1327.41
563.48,1330.45
563.90,1333.90
564.32,1337.74
564.74,1341.97
565.16,1346.59
565.58,1351.67
566.01,1357.27
566.43,1363.47
566.85,1370.35
567.27,1377.94
567.69,1386.24
568.11,1395.18
568.53,1404.65
568.96,1414.45
569.38,1424.35
569.80,1434.07
570.22,1443.36
570.64,1451.94
571.06,1459.59
571.48,1466.18
571.90,1471.63
572.32,1475.96
572.74,1479.24
573.16,1481.61
573.58,1483.26
574.01,1484.35
574.43,1485.03
574.85,1485.40
575.27,1485.50
575.69,1485.32
576.11,1484.75
576.53,1483.70
576.95,1482.04
577.37,1479.64
577.79,1476.44
578.21,1472.43
578.63,1467.67
579.05,1462.29
579.47,1456.48
579.89,1450.47
580.31,1444.50
580.73,1438.83
581.15,1433.64
581.57,1429.07
581.99,1425.21
582.41,1422.05
582.83,1419.51
583.25,1417.48
583.67,1415.79
584.09,1414.30
584.51,1412.85
584.93,1411.34
585.34,1409.71
585.76,1407.94
586.18,1406.10
586.60,1404.26
587.02,1402.55
587.44,1401.09
587.86,1400.02
588.28,1399.43
588.70,1399.37
589.12,1399.88
589.54,1400.91
589.95,1402.40
590.37,1404.25
590.79,1406.37
591.21,1408.65
591.63,1411.02
592.05,1413.46
592.47,1416.00
592.89,1418.71
593.30,1421.71
593.72,1425.17
594.14,1429.24
594.56,1434.07
594.98,1439.78
595.40,1446.40
595.81,1453.91
596.23,1462.20
596.65,1471.10
597.07,1480.38
597.49,1489.78
597.90,1499.04
598.32,1507.93
598.74,1516.25
599.16,1523.89
599.58,1530.79
599.99,1536.98
600.41,1542.54
600.83,1547.62
601.25,1552.37
601.66,1556.94
602.08,1561.48
602.50,1566.08
602.92,1570.76
603.33,1575.48
603.75,1580.14
604.17,1584.56
604.59,1588.53
605.00,1591.81
605.42,1594.18
605.84,1595.41
606.25,1595.37
606.67,1593.98
607.09,1591.24
607.51,1587.24
607.92,1582.15
608.34,1576.19
608.76,1569.63
609.17,1562.76
609.59,1555.85
610.01,1549.15
610.42,1542.86
610.84,1537.10
611.26,1531.94
611.67,1527.36
612.09,1523.29
612.51,1519.62
612.92,1516.18
613.34,1512.81
613.75,1509.35
614.17,1505.68
614.59,1501.69
615.00,1497.34
615.42,1492.65
615.83,1487.68
616.25,1482.54
616.67,1477.38
617.08,1472.37
617.50,1467.68
617.91,1463.45
618.33,1459.83
618.75,1456.88
619.16,1454.63
619.58,1453.06
619.99,1452.07
620.41,1451.56
620.82,1451.36
621.24,1451.30
621.65,1451.23
622.07,1451.00
622.48,1450.52
622.90,1449.74
623.31,1448.66
623.73,1447.34
624.14,1445.90
624.56,1444.46
624.97,1443.18
625.39,1442.21
625.80,1441.67
626.22,1441.68
626.63,1442.27
627.05,1443.46
627.46,1445.19
627.88,1447.37
628.29,1449.88
628.71,1452.55
629.12,1455.24
629.54,1457.77
629.95,1460.02
630.37,1461.88
630.78,1463.31
631.19,1464.30
631.61,1464.91
632.02,1465.26
632.44,1465.49
632.85,1465.79
633.26,1466.35
633.68,1467.37
634.09,1469.00
634.51,1471.37
634.92,1474.52
635.33,1478.46
635.75,1483.09
636.16,1488.27
636.57,1493.81
636.99,1499.47
637.40,1505.02
637.82,1510.21
638.23,1514.83
638.64,1518.73
639.06,1521.78
639.47,1523.96
639.88,1525.28
640.30,1525.82
640.71,1525.69
641.12,1525.07
641.53,1524.12
641.95,1523.03
642.36,1521.96
642.77,1521.05
643.19,1520.41
643.60,1520.13
644.01,1520.22
644.42,1520.68
644.84,1521.44
645.25,1522.42
645.66,1523.48
646.08,1524.49
646.49,1525.27
646.90,1525.68
647.31,1525.57
647.73,1524.83
648.14,1523.37
648.55,1521.17
648.96,1518.24
649.37,1514.67
649.79,1510.58
650.20,1506.16
650.61,1501.60
651.02,1497.13
651.43,1492.96
651.85,1489.27
652.26,1486.23
652.67,1483.92
653.08,1482.37
653.49,1481.56
653.90,1481.38
654.32,1481.70
654.73,1482.34
655.14,1483.11
655.55,1483.80
655.96,1484.25
656.37,1484.30
656.78,1483.85
657.20,1482.84
657.61,1481.24
658.02,1479.10
658.43,1476.47
658.84,1473.47
659.25,1470.22
659.66,1466.87
660.07,1463.57
660.48,1460.50
660.90,1457.78
661.31,1455.55
661.72,1453.92
662.13,1452.95
662.54,1452.68
662.95,1453.10
663.36,1454.16
663.77,1455.77
664.18,1457.80
664.59,1460.12
665.00,1462.56
665.41,1464.96
665.82,1467.18
666.23,1469.08
666.64,1470.59
667.05,1471.67
667.46,1472.33
667.87,1472.62
668.28,1472.65
668.69,1472.56
669.10,1472.53
669.51,1472.71
669.92,1473.27
670.33,1474.35
670.74,1476.05
671.15,1478.42
671.56,1481.46
671.97,1485.12
672.38,1489.30
672.79,1493.86
673.20,1498.63
673.61,1503.42
674.02,1508.04
674.42,1512.31
674.83,1516.08
675.24,1519.22
675.65,1521.64
676.06,1523.32
676.47,1524.28
676.88,1524.59
677.29,1524.38
677.70,1523.82
678.11,1523.11
678.51,1522.48
678.92,1522.15
679.33,1522.34
679.74,1523.25
680.15,1525.02
680.56,1527.77
680.97,1531.55
681.37,1536.36
681.78,1542.14
682.19,1548.75
682.60,1556.02
683.01,1563.74
683.42,1571.64
683.82,1579.47
684.23,1586.94
684.64,1593.79
685.05,1599.82
685.45,1604.84
685.86,1608.75
686.27,1611.49
686.68,1613.09
687.09,1613.61
687.49,1613.21
687.90,1612.03
688.31,1610.29
688.72,1608.21
689.12,1605.99
689.53,1603.84
689.94,1601.96
690.35,1600.51
690.75,1599.61
691.16,1599.34
691.57,1599.73
691.97,1600.76
692.38,1602.36
692.79,1604.40
693.20,1606.71
693.60,1609.11
694.01,1611.38
694.42,1613.34
694.82,1614.78
695.23,1615.55
695.64,1615.53
696.04,1614.64
696.45,1612.84
696.86,1610.15
697.26,1606.61
697.67,1602.30
698.07,1597.33
698.48,1591.83
698.89,1585.96
699.29,1579.89
699.70,1573.78
700.11,1567.82
700.51,1562.17
700.92,1556.99
701.32,1552.42
701.73,1548.55
702.14,1545.47
702.54,1543.21
702.95,1541.78
703.35,1541.14
703.76,1541.23
704.16,1541.93
704.57,1543.12
704.97,1544.65
705.38,1546.35
705.79,1548.05
706.19,1549.59
706.60,1550.79
707.00,1551.52
707.41,1551.66
707.81,1551.10
708.22,1549.82
708.62,1547.79
709.03,1545.05
709.43,1541.69
709.84,1537.83
710.24,1533.66
710.65,1529.38
711.05,1525.21
711.46,1521.39
711.86,1518.13
712.27,1515.62
712.67,1514.01
713.07,1513.37
713.48,1513.73
713.88,1515.03
714.29,1517.17
714.69,1519.98
715.10,1523.28
715.50,1526.87
715.90,1530.53
716.31,1534.10
716.71,1537.40
717.12,1540.30
717.52,1542.72
717.92,1544.59
718.33,1545.88
718.73,1546.59
719.14,1546.74
719.54,1546.41
719.94,1545.69
720.35,1544.70
720.75,1543.60
721.15,1542.57
721.56,1541.83
721.96,1541.57
722.36,1541.99
722.77,1543.29
723.17,1545.60
723.57,1549.02
723.98,1553.59
724.38,1559.28
724.78,1566.01
725.19,1573.63
725.59,1581.94
725.99,1590.69
726.39,1599.63
726.80,1608.48
727.20,1616.97
727.60,1624.85
728.00,1631.92
728.41,1638.02
728.81,1643.03
729.21,1646.91
729.61,1649.66
730.02,1651.35
730.42,1652.09
730.82,1652.06
731.22,1651.46
731.63,1650.52
732.03,1649.51
732.43,1648.71
732.83,1648.39
733.23,1648.84
733.64,1650.30
734.04,1653.00
734.44,1657.10
734.84,1662.72
735.24,1669.92
735.64,1678.69
736.05,1688.94
736.45,1700.52
736.85,1713.23
737.25,1726.80
737.65,1740.95
738.05,1755.35
738.45,1769.69
738.86,1783.64
739.26,1796.90
739.66,1809.21
740.06,1820.33
740.46,1830.07
740.86,1838.31
741.26,1844.95
741.66,1849.95
742.06,1853.33
742.46,1855.14
742.87,1855.49
743.27,1854.54
743.67,1852.46
744.07,1849.50
744.47,1845.89
744.87,1841.94
745.27,1837.91
745.67,1834.12
746.07,1830.82
746.47,1828.29
746.87,1826.75
747.27,1826.36
747.67,1827.28
748.07,1829.57
748.47,1833.27
748.87,1838.37
749.27,1844.79
749.67,1852.42
750.07,1861.11
750.47,1870.66
750.87,1880.84
751.27,1891.40
751.67,1902.09
752.07,1912.63
752.47,1922.73
752.87,1932.13
753.27,1940.58
753.66,1947.82
754.06,1953.64
754.46,1957.84
754.86,1960.26
755.26,1960.78
755.66,1959.33
756.06,1955.90
756.46,1950.54
756.86,1943.41
757.26,1934.70
757.65,1924.69
758.05,1913.74
758.45,1902.22
758.85,1890.53
759.25,1879.09
759.65,1868.25
760.05,1858.36
760.44,1849.68
760.84,1842.39
761.24,1836.60
761.64,1832.34
762.04,1829.56
762.44,1828.13
762.83,1827.87
763.23,1828.55
763.63,1829.89
764.03,1831.60
764.43,1833.39
764.82,1834.95
765.22,1836.02
765.62,1836.35
766.02,1835.73
766.41,1833.99
766.81,1831.02
767.21,1826.75
767.61,1821.17
768.00,1814.32
768.40,1806.26
768.80,1797.12
769.20,1787.06
769.59,1776.26
769.99,1764.93
770.39,1753.31
770.79,1741.65
771.18,1730.19
771.58,1719.19
771.98,1708.88
772.37,1699.48
772.77,1691.18
773.17,1684.13
773.56,1678.44
773.96,1674.19
774.36,1671.40
774.75,1670.03
775.15,1670.01
775.55,1671.22
775.94,1673.47
776.34,1676.57
776.73,1680.29
777.13,1684.39
777.53,1688.62
777.92,1692.78
778.32,1696.65
778.72,1700.07
779.11,1702.93
779.51,1705.15
779.90,1706.68
780.30,1707.52
780.69,1707.71
781.09,1707.29
781.49,1706.35
781.88,1704.97
782.28,1703.25
782.67,1701.33
783.07,1699.32
783.46,1697.37
783.86,1695.64
784.25,1694.27
784.65,1693.43
785.04,1693.25
785.44,1693.88
785.83,1695.40
786.23,1697.90
786.62,1701.41
787.02,1705.93
787.41,1711.40
787.81,1717.76
788.20,1724.90
788.60,1732.67
788.99,1740.93
789.39,1749.49
789.78,1758.17
790.18,1766.78
790.57,1775.15
790.97,1783.09
791.36,1790.46
791.75,1797.11
792.15,1802.94
792.54,1807.88
792.94,1811.90
793.33,1814.98
793.72,1817.17
794.12,1818.53
794.51,1819.13
794.91,1819.08
795.30,1818.52
795.69,1817.57
796.09,1816.37
796.48,1815.09
796.87,1813.85
797.27,1812.82
797.66,1812.15
798.05,1811.99
798.45,1812.47
798.84,1813.73
799.23,1815.89
799.63,1819.04
800.02,1823.28
800.41,1828.64
800.81,1835.14
801.20,1842.77
801.59,1851.46
801.99,1861.12
802.38,1871.62
802.77,1882.79
803.16,1894.43
803.56,1906.34
803.95,1918.29
804.34,1930.03
804.73,1941.35
805.13,1952.01
805.52,1961.84
805.91,1970.66
806.30,1978.36
806.69,1984.85
807.09,1990.12
807.48,1994.16
807.87,1997.02
808.26,1998.80
808.66,1999.59
809.05,1999.50
809.44,1998.65
809.83,1997.15
810.22,1995.10
810.61,1992.61
811.01,1989.75
811.40,1986.64
811.79,1983.36
812.18,1980.04
812.57,1976.79
812.96,1973.76
813.35,1971.10
813.75,1968.95
814.14,1967.46
814.53,1966.73
814.92,1966.85
815.31,1967.87
815.70,1969.80
816.09,1972.60
816.48,1976.22
816.87,1980.55
817.26,1985.49
817.65,1990.90
818.04,1996.64
818.44,2002.60
818.83,2008.63
819.22,2014.62
819.61,2020.46
820.00,2026.05
820.39,2031.30
820.78,2036.14
821.17,2040.48
821.56,2044.28
821.95,2047.47
822.34,2050.02
822.73,2051.89
823.12,2053.06
823.51,2053.52
823.90,2053.28
824.29,2052.34
824.68,2050.72
825.07,2048.47
825.46,2045.61
825.85,2042.20
826.24,2038.29
826.62,2033.95
827.01,2029.26
827.40,2024.33
827.79,2019.26
828.18,2014.18
828.57,2009.23
828.96,2004.54
829.35,2000.25
829.74,1996.48
830.13,1993.33
830.52,1990.88
830.90,1989.17
831.29,1988.23
831.68,1988.06
832.07,1988.65
832.46,1989.94
832.85,1991.90
833.24,1994.48
833.62,1997.61
834.01,2001.20
834.40,2005.16
834.79,2009.40
835.18,2013.77
835.57,2018.16
835.95,2022.42
836.34,2026.41
836.73,2030.01
837.12,2033.11
837.51,2035.62
837.89,2037.49
838.28,2038.69
838.67,2039.22
839.06,2039.10
839.44,2038.36
839.83,2037.05
840.22,2035.23
840.61,2032.95
840.99,2030.28
841.38,2027.27
841.77,2024.01
842.16,2020.55
842.54,2016.99
842.93,2013.40
843.32,2009.87
843.70,2006.50
844.09,2003.39
844.48,2000.60
844.86,1998.22
845.25,1996.30
845.64,1994.86
846.02,1993.91
846.41,1993.44
846.80,1993.39
847.18,1993.71
847.57,1994.32
847.96,1995.16
848.34,1996.15
848.73,1997.25
849.12,1998.43
849.50,1999.68
849.89,2000.99
850.27,2002.40
850.66,2003.93
851.05,2005.60
851.43,2007.45
851.82,2009.47
852.20,2011.66
852.59,2014.01
852.97,2016.46
853.36,2018.98
853.75,2021.50
854.13,2023.95
854.52,2026.27
854.90,2028.37
855.29,2030.21
855.67,2031.72
856.06,2032.86
856.44,2033.60
856.83,2033.93
857.21,2033.84
857.60,2033.35
857.98,2032.51
858.37,2031.37
858.75,2029.99
859.14,2028.44
859.52,2026.81
859.91,2025.18
860.29,2023.60
860.68,2022.15
861.06,2020.86
861.44,2019.77
861.83,2018.88
862.21,2018.21
862.60,2017.74
862.98,2017.46
863.37,2017.36
863.75,2017.43
864.13,2017.65
864.52,2018.02
864.90,2018.54
865.29,2019.20
865.67,2019.99
866.05,2020.91
866.44,2021.94
866.82,2023.04
867.20,2024.19
867.59,2025.35
867.97,2026.49
868.35,2027.59
868.74,2028.61
869.12,2029.56
869.50,2030.43
869.89,2031.23
870.27,2031.97
870.65,2032.65
871.04,2033.28
871.42,2033.85
871.80,2034.35
872.19,2034.77
872.57,2035.08
872.95,2035.26
873.33,2035.31
873.72,2035.21
874.10,2034.98
874.48,2034.62
874.86,2034.17
875.25,2033.67
875.63,2033.16
876.01,2032.71
876.39,2032.39
876.77,2032.27
877.16,2032.43
877.54,2032.94
877.92,2033.85
878.30,2035.22
878.68,2037.08
879.07,2039.44
879.45,2042.32
879.83,2045.71
880.21,2049.60
880.59,2054.00
880.97,2058.89
881.36,2064.30
881.74,2070.22
882.12,2076.70
882.50,2083.75
882.88,2091.42
883.26,2099.72
883.64,2108.68
884.02,2118.31
884.41,2128.61
884.79,2139.57
885.17,2151.16
885.55,2163.32
885.93,2176.01
886.31,2189.12
886.69,2202.56
887.07,2216.21
887.45,2229.94
887.83,2243.60
888.21,2257.01
888.59,2270.03
888.97,2282.47
889.35,2294.20
889.73,2305.07
890.11,2314.96
890.49,2323.81
890.87,2331.55
891.25,2338.17
891.63,2343.69
892.01,2348.12
892.39,2351.53
892.77,2353.95
893.15,2355.41
893.53,2355.95
893.91,2355.56
894.29,2354.23
894.67,2351.94
895.05,2348.63
895.43,2344.28
895.81,2338.83
896.19,2332.26
896.57,2324.55
896.95,2315.70
897.32,2305.72
897.70,2294.64
898.08,2282.50
898.46,2269.39
898.84,2255.37
899.22,2240.55
899.60,2225.05
899.98,2209.01
900.35,2192.57
900.73,2175.89
901.11,2159.14
901.49,2142.46
901.87,2126.00
902.25,2109.88
902.63,2094.19
903.00,2079.00
903.38,2064.35
903.76,2050.26
904.14,2036.72
904.52,2023.74
904.89,2011.27
905.27,1999.30
905.65,1987.77
906.03,1976.65
906.40,1965.88
906.78,1955.43
907.16,1945.25
907.54,1935.29
907.91,1925.50
908.29,1915.86
908.67,1906.34
909.05,1896.93
909.42,1887.62
909.80,1878.42
910.18,1869.34
910.55,1860.40
910.93,1851.64
911.31,1843.06
911.68,1834.68
912.06,1826.52
912.44,1818.58
912.82,1810.85
913.19,1803.31
913.57,1795.96
913.94,1788.79
914.32,1781.77
914.70,1774.90
915.07,1768.20
915.45,1761.67
915.83,1755.33
916.20,1749.20
916.58,1743.31
916.95,1737.69
917.33,1732.34
917.71,1727.27
918.08,1722.49
918.46,1717.98
918.83,1713.71
919.21,1709.66
919.58,1705.79
919.96,1702.06
920.34,1698.44
920.71,1694.86
921.09,1691.31
921.46,1687.73
921.84,1684.12
922.21,1680.44
922.59,1676.69
922.96,1672.88
923.34,1669.01
923.71,1665.09
924.09,1661.15
924.46,1657.18
924.84,1653.18
925.21,1649.16
925.59,1645.07
925.96,1640.90
926.34,1636.61
926.71,1632.16
927.08,1627.53
927.46,1622.72
927.83,1617.72
928.21,1612.55
928.58,1607.24
928.96,1601.84
929.33,1596.38
929.70,1590.90
930.08,1585.44
930.45,1580.01
930.83,1574.63
931.20,1569.30
931.57,1564.03
931.95,1558.81
932.32,1553.65
932.69,1548.58
933.07,1543.60
933.44,1538.74
933.81,1534.02
934.19,1529.47
934.56,1525.09
934.93,1520.89
935.31,1516.87
935.68,1513.00
936.05,1509.26
936.43,1505.63
936.80,1502.09
937.17,1498.59
937.54,1495.12
937.92,1491.64
938.29,1488.13
938.66,1484.56
939.03,1480.91
939.41,1477.18
939.78,1473.35
940.15,1469.44
940.52,1465.45
940.90,1461.42
941.27,1457.37
941.64,1453.34
942.01,1449.35
942.38,1445.44
942.76,1441.60
943.13,1437.85
943.50,1434.17
943.87,1430.53
944.24,1426.90
944.61,1423.25
944.99,1419.53
945.36,1415.73
945.73,1411.81
946.10,1407.76
946.47,1403.56
946.84,1399.22
947.21,1394.73
947.59,1390.10
947.96,1385.34
948.33,1380.44
948.70,1375.44
949.07,1370.36
949.44,1365.21
949.81,1360.05
950.18,1354.91
950.55,1349.84
950.92,1344.88
951.29,1340.05
951.66,1335.40
952.03,1330.92
952.41,1326.63
952.78,1322.49
953.15,1318.50
953.52,1314.60
953.89,1310.77
954.26,1306.96
954.63,1303.12
955.00,1299.22
955.37,1295.23
955.74,1291.13
956.11,1286.91
956.48,1282.58
956.84,1278.16
957.21,1273.68
957.58,1269.17
957.95,1264.68
958.32,1260.25
958.69,1255.92
959.06,1251.72
959.43,1247.68
959.80,1243.81
960.17,1240.11
960.54,1236.55
960.91,1233.13
961.28,1229.81
961.64,1226.56
962.01,1223.34
962.38,1220.12
962.75,1216.88
963.12,1213.57
963.49,1210.20
963.86,1206.75
964.22,1203.20
964.59,1199.57
964.96,1195.85
965.33,1192.06
965.70,1188.21
966.07,1184.33
966.43,1180.44
966.80,1176.56
967.17,1172.73
967.54,1168.96
967.91,1165.28
968.27,1161.70
968.64,1158.24
969.01,1154.89
969.38,1151.65
969.74,1148.50
970.11,1145.43
970.48,1142.40
970.85,1139.39
971.21,1136.37
971.58,1133.34
971.95,1130.27
972.31,1127.16
972.68,1124.00
973.05,1120.80
973.42,1117.57
973.78,1114.31
974.15,1111.03
974.52,1107.72
974.88,1104.37
975.25,1100.97
975.62,1097.52
975.98,1094.00
976.35,1090.40
976.72,1086.72
977.08,1082.94
977.45,1079.08
977.81,1075.12
978.18,1071.08
978.55,1066.95
978.91,1062.75
979.28,1058.49
979.64,1054.19
980.01,1049.91
980.38,1045.67
980.74,1041.55
981.11,1037.61
981.47,1033.90
981.84,1030.47
982.20,1027.34
982.57,1024.52
982.93,1021.97
983.30,1019.66
983.66,1017.51
984.03,1015.44
984.39,1013.35
984.76,1011.19
985.12,1008.89
985.49,1006.41
985.85,1003.75
986.22,1000.92
986.58,997.94
986.95,994.87
987.31,991.76
987.68,988.64
988.04,985.56
988.41,982.53
988.77,979.58
989.13,976.70
989.50,973.87
989.86,971.07
990.23,968.29
990.59,965.48
990.96,962.65
991.32,959.76
991.68,956.83
992.05,953.85
992.41,950.84
992.77,947.82
993.14,944.82
993.50,941.87
993.86,939.00
994.23,936.26
994.59,933.66
994.95,931.23
995.32,928.98
995.68,926.90
996.04,925.00
996.41,923.26
996.77,921.64
997.13,920.13
997.50,918.70
997.86,917.32
998.22,915.96
998.58,914.61
998.95,913.25
999.31,911.86
999.67,910.43
1000.03,908.95
1000.40,907.38
1000.76,905.72
1001.12,903.94
1001.48,902.02
1001.84,899.94
1002.21,897.70
1002.57,895.30
1002.93,892.73
1003.29,890.02
1003.65,887.20
1004.02,884.32
1004.38,881.41
1004.74,878.54
1005.10,875.75
1005.46,873.08
1005.82,870.59
1006.19,868.30
1006.55,866.21
1006.91,864.34
1007.27,862.65
1007.63,861.13
1007.99,859.74
1008.35,858.42
1008.71,857.14
1009.07,855.85
1009.43,854.53
1009.80,853.13
1010.16,851.64
1010.52,850.06
1010.88,848.38
1011.24,846.61
1011.60,844.75
1011.96,842.81
1012.32,840.82
1012.68,838.78
1013.04,836.70
1013.40,834.61
1013.76,832.51
1014.12,830.45
1014.48,828.43
1014.84,826.48
1015.20,824.64
1015.56,822.93
1015.92,821.37
1016.28,819.97
1016.64,818.73
1017.00,817.63
1017.36,816.64
1017.72,815.71
1018.07,814.81
1018.43,813.86
1018.79,812.84
1019.15,811.69
1019.51,810.41
1019.87,808.99
1020.23,807.45
1020.59,805.83
1020.95,804.15
1021.31,802.48
1021.66,800.85
1022.02,799.32
1022.38,797.90
1022.74,796.61
1023.10,795.46
1023.46,794.43
1023.81,793.52
1024.17,792.70
1024.53,791.95
1024.89,791.25
1025.25,790.57
1025.60,789.89
1025.96,789.18
1026.32,788.42
1026.68,787.62
1027.04,786.97
1027.39,785.58
1027.75,784.40
1028.11,783.48
1028.47,782.86
1028.82,789.42
1029.18,756.40
1029.54,788.96
1029.90,788.96
1030.25,788.96
