wavelength,counts
188.65,256.48
189.10,256.48
189.56,256.48
190.01,256.48
190.47,256.48
190.92,286.85
191.37,299.50
191.83,313.85
192.28,329.67
192.74,346.68
193.19,364.53
193.64,382.85
194.10,402.04
194.55,422.02
195.01,442.74
195.46,464.14
195.91,486.19
196.37,508.82
196.82,531.97
197.27,555.50
197.73,579.25
198.18,603.02
198.63,626.55
199.09,649.55
199.54,671.71
199.99,692.75
200.45,712.40
200.90,730.44
201.35,746.73
201.81,761.20
202.26,773.85
202.71,784.76
203.17,794.03
203.62,801.82
204.07,808.27
204.53,813.54
204.98,817.77
205.43,821.06
205.89,823.51
206.34,825.18
206.79,826.15
207.25,826.47
207.70,826.20
208.15,825.42
208.60,824.21
209.06,822.66
209.51,820.85
209.96,818.88
210.41,816.84
210.87,814.80
211.32,812.82
211.77,810.94
212.23,809.18
212.68,807.57
213.13,806.11
213.58,804.80
214.04,803.61
214.49,802.54
214.94,801.57
215.39,800.68
215.84,799.85
216.30,799.08
216.75,798.35
217.20,797.66
217.65,797.03
218.11,796.44
218.56,795.93
219.01,795.51
219.46,795.19
219.91,794.99
220.37,794.92
220.82,794.98
221.27,795.17
221.72,795.46
222.17,795.85
222.63,796.31
223.08,796.81
223.53,797.33
223.98,797.85
224.43,798.35
224.88,798.81
225.34,799.24
225.79,799.63
226.24,799.98
226.69,800.29
227.14,800.59
227.59,800.86
228.04,801.12
228.50,801.38
228.95,801.65
229.40,801.93
229.85,802.24
230.30,802.59
230.75,802.99
231.20,803.44
231.66,803.95
232.11,804.51
232.56,805.12
233.01,805.74
233.46,806.36
233.91,806.95
234.36,807.47
234.81,807.90
235.26,808.21
235.71,808.42
236.17,808.50
236.62,808.50
237.07,808.41
237.52,808.28
237.97,808.13
238.42,807.98
238.87,807.84
239.32,807.72
239.77,807.59
240.22,807.46
240.67,807.31
241.12,807.11
241.57,806.88
242.02,806.62
242.47,806.35
242.92,806.12
243.37,805.96
243.82,805.90
244.27,806.00
244.72,806.25
245.18,806.67
245.63,807.23
246.08,807.89
246.53,808.61
246.98,809.33
247.43,810.00
247.88,810.56
248.33,811.00
248.78,811.28
249.23,811.42
249.68,811.44
250.12,811.36
250.57,811.23
251.02,811.08
251.47,810.95
251.92,810.87
252.37,810.86
252.82,810.94
253.27,811.10
253.72,811.33
254.17,811.61
254.62,811.91
255.07,812.22
255.52,812.49
255.97,812.72
256.42,812.87
256.87,812.95
257.32,812.95
257.77,812.88
258.22,812.75
258.66,812.58
259.11,812.38
259.56,812.18
260.01,811.99
260.46,811.84
260.91,811.76
261.36,811.75
261.81,811.84
262.26,812.05
262.71,812.39
263.15,812.85
263.60,813.44
264.05,814.14
264.50,814.92
264.95,815.73
265.40,816.55
265.85,817.30
266.30,817.97
266.74,818.50
267.19,818.87
267.64,819.07
268.09,819.09
268.54,818.95
268.99,818.65
269.43,818.23
269.88,817.70
270.33,817.10
270.78,816.45
271.23,815.79
271.68,815.15
272.12,814.57
272.57,814.07
273.02,813.68
273.47,813.43
273.92,813.34
274.36,813.42
274.81,813.66
275.26,814.06
275.71,814.58
276.16,815.20
276.60,815.87
277.05,816.55
277.50,817.20
277.95,817.78
278.39,818.26
278.84,818.61
279.29,818.82
279.74,818.89
280.19,818.83
280.63,818.64
281.08,818.35
281.53,817.99
281.98,817.55
282.42,817.08
282.87,816.57
283.32,816.04
283.76,815.50
284.21,814.96
284.66,814.42
285.11,813.89
285.55,813.40
286.00,812.96
286.45,812.58
286.89,812.29
287.34,812.10
287.79,812.01
288.23,812.03
288.68,812.14
289.13,812.32
289.58,812.57
290.02,812.85
290.47,813.16
290.92,813.48
291.36,813.80
291.81,814.13
292.26,814.48
292.70,814.84
293.15,815.24
293.60,815.67
294.04,816.12
294.49,816.61
294.93,817.10
295.38,817.60
295.83,818.08
296.27,818.52
296.72,818.90
297.17,819.21
297.61,819.45
298.06,819.61
298.50,819.71
298.95,819.76
299.40,819.80
299.84,819.85
300.29,819.97
300.73,820.17
301.18,820.50
301.63,820.97
302.07,821.57
302.52,822.29
302.96,823.09
303.41,823.94
303.85,824.79
304.30,825.59
304.75,826.30
305.19,826.89
305.64,827.36
306.08,827.71
306.53,827.93
306.97,828.05
307.42,828.10
307.86,828.09
308.31,828.05
308.75,827.99
309.20,827.95
309.65,827.94
310.09,827.97
310.54,828.07
310.98,828.25
311.43,828.52
311.87,828.89
312.32,829.36
312.76,829.93
313.21,830.57
313.65,831.27
314.10,832.00
314.54,832.75
314.99,833.48
315.43,834.20
315.87,834.89
316.32,835.55
316.76,836.19
317.21,836.84
317.65,837.51
318.10,838.21
318.54,838.97
318.99,839.80
319.43,840.69
319.88,841.64
320.32,842.63
320.76,843.66
321.21,844.68
321.65,845.68
322.10,846.63
322.54,847.51
322.99,848.30
323.43,848.99
323.87,849.58
324.32,850.07
324.76,850.47
325.21,850.78
325.65,851.05
326.09,851.27
326.54,851.48
326.98,851.68
327.42,851.90
327.87,852.15
328.31,852.42
328.76,852.72
329.20,853.05
329.64,853.39
330.09,853.75
330.53,854.11
330.97,854.48
331.42,854.84
331.86,855.21
332.30,855.58
332.75,855.96
333.19,856.36
333.63,856.78
334.08,857.24
334.52,857.74
334.96,858.29
335.41,858.89
335.85,859.53
336.29,860.22
336.74,860.96
337.18,861.74
337.62,862.56
338.06,863.41
338.51,864.30
338.95,865.22
339.39,866.18
339.84,867.16
340.28,868.16
340.72,869.18
341.16,870.21
341.61,871.24
342.05,872.28
342.49,873.33
342.93,874.42
343.38,875.55
343.82,876.77
344.26,878.10
344.70,879.56
345.15,881.19
345.59,882.99
346.03,884.97
346.47,887.10
346.92,889.38
347.36,891.76
347.80,894.22
348.24,896.73
348.68,899.27
349.13,901.82
349.57,904.40
350.01,906.99
350.45,909.62
350.89,912.31
351.34,915.05
351.78,917.87
352.22,920.75
352.66,923.69
353.10,926.68
353.54,929.72
353.99,932.79
354.43,935.89
354.87,939.04
355.31,942.26
355.75,945.57
356.19,949.03
356.63,952.66
357.08,956.50
357.52,960.58
357.96,964.93
358.40,969.54
358.84,974.42
359.28,979.54
359.72,984.88
360.16,990.40
360.60,996.06
361.05,1001.83
361.49,1007.69
361.93,1013.61
362.37,1019.60
362.81,1025.65
363.25,1031.79
363.69,1038.03
364.13,1044.39
364.57,1050.89
365.01,1057.54
365.45,1064.33
365.89,1071.27
366.33,1078.34
366.78,1085.54
367.22,1092.85
367.66,1100.26
368.10,1107.77
368.54,1115.39
368.98,1123.11
369.42,1130.96
369.86,1138.93
370.30,1147.05
370.74,1155.31
371.18,1163.73
371.62,1172.29
372.06,1181.02
372.50,1189.90
372.94,1198.94
373.38,1208.17
373.82,1217.61
374.26,1227.29
374.70,1237.26
375.14,1247.57
375.58,1258.26
376.02,1269.41
376.46,1281.06
376.90,1293.25
377.34,1306.02
377.78,1319.41
378.21,1333.43
378.65,1348.10
379.09,1363.41
379.53,1379.36
379.97,1395.96
380.41,1413.21
380.85,1431.10
381.29,1449.65
381.73,1468.87
382.17,1488.79
382.61,1509.41
383.05,1530.76
383.49,1552.85
383.93,1575.69
384.36,1599.27
384.80,1623.57
385.24,1648.58
385.68,1674.27
386.12,1700.60
386.56,1727.55
387.00,1755.07
387.44,1783.14
387.87,1811.74
388.31,1840.83
388.75,1870.41
389.19,1900.43
389.63,1930.90
390.07,1961.77
390.51,1993.04
390.94,2024.67
391.38,2056.66
391.82,2088.97
392.26,2121.62
392.70,2154.58
393.14,2187.87
393.57,2221.49
394.01,2255.44
394.45,2289.74
394.89,2324.40
395.33,2359.44
395.76,2394.87
396.20,2430.74
396.64,2467.06
397.08,2503.90
397.52,2541.29
397.95,2579.29
398.39,2617.96
398.83,2657.34
399.27,2697.48
399.70,2738.40
400.14,2780.10
400.58,2822.59
401.02,2865.81
401.45,2909.73
401.89,2954.28
402.33,2999.38
402.77,3044.95
403.20,3090.92
403.64,3137.21
404.08,3183.73
404.52,3230.41
404.95,3277.18
405.39,3323.95
405.83,3370.64
406.26,3417.18
406.70,3463.48
407.14,3509.47
407.58,3555.07
408.01,3600.22
408.45,3644.85
408.89,3688.88
409.32,3732.25
409.76,3774.88
410.20,3816.73
410.63,3857.73
411.07,3897.86
411.51,3937.12
411.94,3975.50
412.38,4013.02
412.82,4049.72
413.25,4085.63
413.69,4120.79
414.12,4155.23
414.56,4189.01
415.00,4222.20
415.43,4254.86
415.87,4287.10
416.31,4319.01
416.74,4350.71
417.18,4382.31
417.61,4413.92
418.05,4445.64
418.49,4477.60
418.92,4509.87
419.36,4542.55
419.79,4575.69
420.23,4609.34
420.67,4643.48
421.10,4678.09
421.54,4713.08
421.97,4748.36
422.41,4783.84
422.84,4819.43
423.28,4855.10
423.71,4890.88
424.15,4926.81
424.59,4963.00
425.02,4999.55
425.46,5036.52
425.89,5073.97
426.33,5111.89
426.76,5150.23
427.20,5188.94
427.63,5227.96
428.07,5267.23
428.50,5306.75
428.94,5346.50
429.37,5386.47
429.81,5426.65
430.24,5466.94
430.68,5507.25
431.11,5547.41
431.55,5587.27
431.98,5626.71
432.42,5665.65
432.85,5704.09
433.28,5742.10
433.72,5779.78
434.15,5817.25
434.59,5854.60
435.02,5891.86
435.46,5929.01
435.89,5965.96
436.33,6002.65
436.76,6038.99
437.19,6074.99
437.63,6110.72
438.06,6146.31
438.50,6181.89
438.93,6217.61
439.37,6253.51
439.80,6289.57
440.23,6325.66
440.67,6361.59
441.10,6397.16
441.53,6432.23
441.97,6466.78
442.40,6500.88
442.84,6534.74
443.27,6568.62
443.70,6602.80
444.14,6637.47
444.57,6672.72
445.00,6708.51
445.44,6744.70
445.87,6781.17
446.30,6817.83
446.74,6854.74
447.17,6892.16
447.60,6930.53
448.04,6970.41
448.47,7012.36
448.90,7056.86
449.34,7104.19
449.77,7154.36
450.20,7207.14
450.64,7262.10
451.07,7318.78
451.50,7376.77
451.93,7435.92
452.37,7496.34
452.80,7558.47
453.23,7622.98
453.67,7690.67
454.10,7762.28
454.53,7838.39
454.96,7919.26
455.40,8004.83
455.83,8094.76
456.26,8188.53
456.69,8285.53
457.13,8385.26
457.56,8487.36
457.99,8591.64
458.42,8698.08
458.86,8806.64
459.29,8917.25
459.72,9029.60
460.15,9143.14
460.58,9257.09
461.02,9370.53
461.45,9482.57
461.88,9592.51
462.31,9700.07
462.74,9805.45
463.18,9909.39
463.61,10013.08
464.04,10117.97
464.47,10225.54
464.90,10337.07
465.33,10453.41
465.77,10574.94
466.20,10701.53
466.63,10832.69
467.06,10967.81
467.49,11106.37
467.92,11248.18
468.35,11393.55
468.78,11543.26
469.22,11698.50
469.65,11860.69
470.08,12031.14
470.51,12210.87
470.94,12400.35
471.37,12599.40
471.80,12807.19
472.23,13022.44
472.66,13243.65
473.10,13469.40
473.53,13698.69
473.96,13931.12
474.39,14166.98
474.82,14407.21
475.25,14653.18
475.68,14906.33
476.11,15167.81
476.54,15438.16
476.97,15717.07
477.40,16003.35
477.83,16295.04
478.26,16589.76
478.69,16885.07
479.12,17178.89
479.55,17469.89
479.98,17757.62
480.41,18042.56
480.84,18325.95
481.27,18609.47
481.70,18894.84
482.13,19183.42
482.56,19475.89
482.99,19772.08
483.42,20070.92
483.85,20370.57
484.28,20668.75
484.71,20963.03
485.14,21251.31
485.57,21532.16
486.00,21805.08
486.43,22070.64
486.86,22330.39
487.29,22586.59
487.72,22841.80
488.15,23098.37
488.58,23357.97
489.01,23621.15
489.44,23887.24
489.87,24154.35
490.30,24419.75
490.72,24680.37
491.15,24933.40
491.58,25176.90
492.01,25410.21
492.44,25634.06
492.87,25850.53
493.30,26062.58
493.73,26273.51
494.16,26486.34
494.59,26703.24
495.01,26925.20
495.44,27151.83
495.87,27381.55
496.30,27611.85
496.73,27839.81
497.16,28062.56
497.59,28277.75
498.01,28483.90
498.44,28680.64
498.87,28868.77
499.30,29050.12
499.73,29227.39
500.16,29403.77
500.58,29582.51
501.01,29766.49
501.44,29957.75
501.87,30157.10
502.30,30363.96
502.72,30576.27
503.15,30790.81
503.58,31003.63
504.01,31210.72
504.44,31408.72
504.86,31595.60
505.29,31771.10
505.72,31936.85
506.15,32096.21
506.57,32253.63
507.00,32413.90
507.43,32581.22
507.86,32758.44
508.28,32946.46
508.71,33144.08
509.14,33348.19
509.57,33554.38
509.99,33757.67
510.42,33953.42
510.85,34138.08
511.27,34309.70
511.70,34468.13
512.13,34614.98
512.56,34753.17
512.98,34886.43
513.41,35018.73
513.84,35153.70
514.26,35294.29
514.69,35442.44
515.12,35599.03
515.54,35763.84
515.97,35935.67
516.40,36112.46
516.82,36291.44
517.25,36469.38
517.68,36642.93
518.10,36808.90
518.53,36964.79
518.95,37109.16
519.38,37242.08
519.81,37365.29
520.23,37482.20
520.66,37597.56
521.09,37716.83
521.51,37845.36
521.94,37987.43
522.36,38145.41
522.79,38319.11
523.22,38505.64
523.64,38699.61
524.07,38893.89
524.49,39080.71
524.92,39252.88
525.34,39405.03
525.77,39534.50
526.20,39641.86
526.62,39730.81
527.05,39807.53
527.47,39879.70
527.90,39955.18
528.32,40040.72
528.75,40140.98
529.17,40257.82
529.60,40390.23
530.02,40534.60
530.45,40685.57
530.87,40836.94
531.30,40982.76
531.72,41118.15
532.15,41239.96
532.57,41347.00
533.00,41439.94
533.42,41520.96
533.85,41593.26
534.27,41660.50
534.70,41726.35
535.12,41794.22
535.55,41867.07
535.97,41947.42
536.40,42037.36
536.82,42138.52
537.25,42252.06
537.67,42378.39
538.09,42516.95
538.52,42665.95
538.94,42822.15
539.37,42980.89
539.79,43136.42
540.22,43282.39
540.64,43412.76
541.06,43522.71
541.49,43609.60
541.91,43673.67
542.34,43718.41
542.76,43750.41
543.18,43778.67
543.61,43813.48
544.03,43864.96
544.46,43941.51
544.88,44048.45
545.30,44186.99
545.73,44353.93
546.15,44541.86
546.57,44740.20
547.00,44936.59
547.42,45118.71
547.84,45276.11
548.27,45401.66
548.69,45492.69
549.11,45551.27
549.54,45583.91
549.96,45600.54
550.38,45613.02
550.81,45633.41
551.23,45672.21
551.65,45737.03
552.07,45831.58
552.50,45955.41
552.92,46104.21
553.34,46270.69
553.77,46445.79
554.19,46620.03
554.61,46784.87
555.03,46933.69
555.46,47062.43
555.88,47169.78
556.30,47256.88
556.72,47326.80
557.15,47383.79
557.57,47432.51
557.99,47477.37
558.41,47522.20
558.84,47570.01
559.26,47623.18
559.68,47683.63
560.10,47753.21
560.52,47833.92
560.95,47928.08
561.37,48038.18
561.79,48166.63
562.21,48315.29
562.63,48484.88
563.06,48674.56
563.48,48881.57
563.90,49101.17
564.32,49327.01
564.74,49551.73
565.16,49767.90
565.58,49969.13
566.01,50151.08
566.43,50312.37
566.85,50455.07
567.27,50584.69
567.69,50709.63
568.11,50840.17
568.53,50987.03
568.96,51159.77
569.38,51365.17
569.80,51605.99
570.22,51880.09
570.64,52180.23
571.06,52494.56
571.48,52807.69
571.90,53102.34
572.32,53361.20
572.74,53568.95
573.16,53714.04
573.58,53790.09
574.01,53796.63
574.43,53739.28
574.85,53629.08
575.27,53481.33
575.69,53313.86
576.11,53145.13
576.53,52992.21
576.95,52869.09
577.37,52785.31
577.79,52745.20
578.21,52747.81
578.63,52787.33
579.05,52854.22
579.47,52936.57
579.89,53021.75
580.31,53097.97
580.73,53155.63
581.15,53188.33
581.57,53193.36
581.99,53171.71
582.41,53127.64
582.83,53067.86
583.25,53000.53
583.67,52934.16
584.09,52876.62
584.51,52834.35
584.93,52811.89
585.34,52811.70
585.76,52834.31
586.18,52878.72
586.60,52943.00
587.02,53024.86
587.44,53122.25
587.86,53233.79
588.28,53359.00
588.70,53498.27
589.12,53652.66
589.54,53823.48
589.95,54011.75
590.37,54217.77
590.79,54440.64
591.21,54678.11
591.63,54926.53
592.05,55181.19
592.47,55436.84
592.89,55688.34
593.30,55931.45
593.72,56163.53
594.14,56384.08
594.56,56595.05
594.98,56800.78
595.40,57007.59
595.81,57223.13
596.23,57455.39
596.65,57711.62
597.07,57997.25
597.49,58314.96
597.90,58663.90
598.32,59039.41
598.74,59433.04
599.16,59832.97
599.58,60224.94
599.99,60593.32
600.41,60922.49
600.83,61198.24
601.25,61409.09
601.66,61547.35
602.08,61609.98
602.50,61598.83
602.92,61520.62
603.33,61386.35
603.75,61210.31
604.17,61008.82
604.59,60798.74
605.00,60595.97
605.42,60414.05
605.84,60263.01
606.25,60148.59
606.67,60071.90
607.09,60029.54
607.51,60014.12
607.92,60015.24
608.34,60020.60
608.76,60017.33
609.17,59993.32
609.59,59938.41
610.01,59845.29
610.42,59710.20
610.84,59533.15
611.26,59317.86
611.67,59071.33
612.09,58803.07
612.51,58524.23
612.92,58246.51
613.34,57981.18
613.75,57738.13
614.17,57525.13
614.59,57347.30
615.00,57206.94
615.42,57103.48
615.83,57033.88
616.25,56993.02
616.67,56974.44
617.08,56970.97
617.50,56975.45
617.91,56981.41
618.33,56983.50
618.75,56977.90
619.16,56962.39
619.58,56936.34
619.99,56900.46
620.41,56856.42
620.82,56806.40
621.24,56752.64
621.65,56696.99
622.07,56640.66
622.48,56583.99
622.90,56526.52
623.31,56467.10
623.73,56404.21
624.14,56336.30
624.56,56262.14
624.97,56181.20
625.39,56093.89
625.80,56001.66
626.22,55907.02
626.63,55813.39
627.05,55724.81
627.46,55645.63
627.88,55580.02
628.29,55531.58
628.71,55502.91
629.12,55495.28
629.54,55508.33
629.95,55540.00
630.37,55586.50
630.78,55642.51
631.19,55701.49
631.61,55756.13
632.02,55798.89
632.44,55822.62
632.85,55821.18
633.26,55790.00
633.68,55726.56
634.09,55630.74
634.51,55504.91
634.92,55353.93
635.33,55184.82
635.75,55006.37
636.16,54828.41
636.57,54661.18
636.99,54514.43
637.40,54396.71
637.82,54314.63
638.23,54272.31
638.64,54271.01
639.06,54308.99
639.47,54381.63
639.88,54481.69
640.30,54599.90
640.71,54725.56
641.12,54847.41
641.53,54954.35
641.95,55036.30
642.36,55084.86
642.77,55093.92
643.19,55060.07
643.60,54982.81
644.01,54864.57
644.42,54710.53
644.84,54528.24
645.25,54327.07
645.66,54117.54
646.08,53910.56
646.49,53716.70
646.90,53545.42
647.31,53404.43
647.73,53299.22
648.14,53232.72
648.55,53205.15
648.96,53214.12
649.37,53254.87
649.79,53320.67
650.20,53403.38
650.61,53494.03
651.02,53583.46
651.43,53662.96
651.85,53724.81
652.26,53762.77
652.67,53772.42
653.08,53751.37
653.49,53699.31
653.90,53617.90
654.32,53510.60
654.73,53382.26
655.14,53238.73
655.55,53086.41
655.96,52931.74
656.37,52780.75
656.78,52638.74
657.20,52509.92
657.61,52397.25
658.02,52302.36
658.43,52225.55
658.84,52165.92
659.25,52121.49
659.66,52089.50
660.07,52066.61
660.48,52049.20
660.90,52033.66
661.31,52016.66
661.72,51995.33
662.13,51967.52
662.54,51931.87
662.95,51887.90
663.36,51835.92
663.77,51776.97
664.18,51712.59
664.59,51644.60
665.00,51574.79
665.41,51504.67
665.82,51435.24
666.23,51366.80
666.64,51298.90
667.05,51230.39
667.46,51159.49
667.87,51084.03
668.28,51001.68
668.69,50910.26
669.10,50807.95
669.51,50693.57
669.92,50566.70
670.33,50427.78
670.74,50278.16
671.15,50120.01
671.56,49956.24
671.97,49790.35
672.38,49626.18
672.79,49467.76
673.20,49318.98
673.61,49183.42
674.02,49064.07
674.42,48963.09
674.83,48881.66
675.24,48819.79
675.65,48776.27
676.06,48748.66
676.47,48733.36
676.88,48725.77
677.29,48720.47
677.70,48711.55
678.11,48692.90
678.51,48658.54
678.92,48602.99
679.33,48521.59
679.74,48410.82
680.15,48268.51
680.56,48094.12
680.97,47888.76
681.37,47655.33
681.78,47398.39
682.19,47124.01
682.60,46839.51
683.01,46553.10
683.42,46273.39
683.82,46008.94
684.23,45767.71
684.64,45556.57
685.05,45380.85
685.45,45244.01
685.86,45147.39
686.27,45090.17
686.68,45069.36
687.09,45080.08
687.49,45115.78
687.90,45168.67
688.31,45230.17
688.72,45291.35
689.12,45343.38
689.53,45377.98
689.94,45387.78
690.35,45366.62
690.75,45309.85
691.16,45214.46
691.57,45079.25
691.97,44904.89
692.38,44693.85
692.79,44450.37
693.20,44180.25
693.60,43890.64
694.01,43589.69
694.42,43286.17
694.82,42989.04
695.23,42706.97
695.64,42447.92
696.04,42218.67
696.45,42024.51
696.86,41868.91
697.26,41753.44
697.67,41677.68
698.07,41639.28
698.48,41634.21
698.89,41656.96
699.29,41700.91
699.70,41758.66
700.11,41822.46
700.51,41884.52
700.92,41937.44
701.32,41974.48
701.73,41989.90
702.14,41979.13
702.54,41938.98
702.95,41867.78
703.35,41765.36
703.76,41633.02
704.16,41473.44
704.57,41290.45
704.97,41088.82
705.38,40873.90
705.79,40651.38
706.19,40426.93
706.60,40205.95
707.00,39993.30
707.41,39793.12
707.81,39608.72
708.22,39442.49
708.62,39295.92
709.03,39169.58
709.43,39063.23
709.84,38975.84
710.24,38905.75
710.65,38850.69
711.05,38807.95
711.46,38774.45
711.86,38746.88
712.27,38721.84
712.67,38696.00
713.07,38666.30
713.48,38630.05
713.88,38585.19
714.29,38530.31
714.69,38464.83
715.10,38388.93
715.50,38303.53
715.90,38210.18
716.31,38110.86
716.71,38007.76
717.12,37903.09
717.52,37798.80
717.92,37696.41
718.33,37596.89
718.73,37500.55
719.14,37407.02
719.54,37315.33
719.94,37223.99
720.35,37131.16
720.75,37034.85
721.15,36933.07
721.56,36824.07
721.96,36706.48
722.36,36579.44
722.77,36442.69
723.17,36296.58
723.57,36142.09
723.98,35980.74
724.38,35814.53
724.78,35645.82
725.19,35477.27
725.59,35311.69
725.99,35151.97
726.39,35000.97
726.80,34861.45
727.20,34735.95
727.60,34626.68
728.00,34535.42
728.41,34463.40
728.81,34411.20
729.21,34378.63
729.61,34364.70
730.02,34367.60
730.42,34384.70
730.82,34412.60
731.22,34447.27
731.63,34484.15
732.03,34518.31
732.43,34544.66
732.83,34558.08
733.23,34553.69
733.64,34526.98
734.04,34474.06
734.44,34391.86
734.84,34278.27
735.24,34132.34
735.64,33954.38
736.05,33746.08
736.45,33510.46
736.85,33251.85
737.25,32975.77
737.65,32688.69
738.05,32397.79
738.45,32110.64
738.86,31834.86
739.26,31577.72
739.66,31345.83
740.06,31144.81
740.46,30979.03
740.86,30851.43
741.26,30763.38
741.66,30714.68
742.06,30703.61
742.46,30727.05
742.87,30780.66
743.27,30859.12
743.67,30956.43
744.07,31066.13
744.47,31181.60
744.87,31296.33
745.27,31404.12
745.67,31499.26
746.07,31576.71
746.47,31632.23
746.87,31662.38
747.27,31664.65
747.67,31637.47
748.07,31580.19
748.47,31493.10
748.87,31377.44
749.27,31235.38
749.67,31069.95
750.07,30885.06
750.47,30685.40
750.87,30476.34
751.27,30263.76
751.67,30053.93
752.07,29853.22
752.47,29667.87
752.87,29503.72
753.27,29365.94
753.66,29258.73
754.06,29185.14
754.46,29146.90
754.86,29144.27
755.26,29176.02
755.66,29239.49
756.06,29330.68
756.46,29444.45
756.86,29574.72
757.26,29714.76
757.65,29857.49
758.05,29995.78
758.45,30122.71
758.85,30231.85
759.25,30317.47
759.65,30374.69
760.05,30399.63
760.44,30389.43
760.84,30342.30
761.24,30257.46
761.64,30135.15
762.04,29976.46
762.44,29783.35
762.83,29558.49
763.23,29305.20
763.63,29027.34
764.03,28729.23
764.43,28415.55
764.82,28091.22
765.22,27761.31
765.62,27430.89
766.02,27104.92
766.41,26788.12
766.81,26484.82
767.21,26198.85
767.61,25933.45
768.00,25691.16
768.40,25473.83
768.80,25282.52
769.20,25117.61
769.59,24978.76
769.99,24865.01
770.39,24774.82
770.79,24706.18
771.18,24656.66
771.58,24623.46
771.98,24603.51
772.37,24593.50
772.77,24590.00
773.17,24589.49
773.56,24588.48
773.96,24583.64
774.36,24571.86
774.75,24550.43
775.15,24517.13
775.55,24470.27
775.94,24408.86
776.34,24332.55
776.73,24241.67
777.13,24137.18
777.53,24020.58
777.92,23893.80
778.32,23759.07
778.72,23618.79
779.11,23475.33
779.51,23330.93
779.90,23187.58
780.30,23046.89
780.69,22910.06
781.09,22777.85
781.49,22650.61
781.88,22528.29
782.28,22410.55
782.67,22296.83
783.07,22186.47
783.46,22078.78
783.86,21973.14
784.25,21869.07
784.65,21766.23
785.04,21664.47
785.44,21563.79
785.83,21464.33
786.23,21366.28
786.62,21269.90
787.02,21175.43
787.41,21083.07
787.81,20992.95
788.20,20905.17
788.60,20819.74
788.99,20736.66
789.39,20655.96
789.78,20577.67
790.18,20501.95
790.57,20429.03
790.97,20359.30
791.36,20293.27
791.75,20231.61
792.15,20175.05
792.54,20124.39
792.94,20080.40
793.33,20043.75
793.72,20014.91
794.12,19994.07
794.51,19981.06
794.91,19975.30
795.30,19975.80
795.69,19981.13
796.09,19989.51
796.48,19998.86
796.87,20006.91
797.27,20011.29
797.66,20009.68
798.05,19999.86
798.45,19979.82
798.84,19947.86
799.23,19902.59
799.63,19843.02
800.02,19768.53
800.41,19678.96
800.81,19574.58
801.20,19456.07
801.59,19324.57
801.99,19181.62
802.38,19029.14
802.77,18869.36
803.16,18704.80
803.56,18538.17
803.95,18372.27
804.34,18209.96
804.73,18054.00
805.13,17907.06
805.52,17771.57
805.91,17649.73
806.30,17543.37
806.69,17453.98
807.09,17382.65
807.48,17330.00
807.87,17296.21
808.26,17280.99
808.66,17283.59
809.05,17302.80
809.44,17337.01
809.83,17384.24
810.22,17442.17
810.61,17508.25
811.01,17579.74
811.40,17653.77
811.79,17727.47
812.18,17798.00
812.57,17862.69
812.96,17919.02
813.35,17964.76
813.75,17997.98
814.14,18017.08
814.53,18020.80
814.92,18008.22
815.31,17978.74
815.70,17932.06
816.09,17868.15
816.48,17787.23
816.87,17689.77
817.26,17576.45
817.65,17448.20
818.04,17306.19
818.44,17151.86
818.83,16986.91
819.22,16813.30
819.61,16633.30
820.00,16449.40
820.39,16264.34
820.78,16081.03
821.17,15902.47
821.56,15731.70
821.95,15571.67
822.34,15425.13
822.73,15294.56
823.12,15182.00
823.51,15089.02
823.90,15016.60
824.29,14965.11
824.68,14934.32
825.07,14923.39
825.46,14930.94
825.85,14955.13
826.24,14993.76
826.62,15044.40
827.01,15104.42
827.40,15171.17
827.79,15241.98
828.18,15314.27
828.57,15385.55
828.96,15453.50
829.35,15515.96
829.74,15570.98
830.13,15616.82
830.52,15651.98
830.90,15675.21
831.29,15685.57
831.68,15682.37
832.07,15665.22
832.46,15634.01
832.85,15588.86
833.24,15530.10
833.62,15458.26
834.01,15374.01
834.40,15278.16
834.79,15171.62
835.18,15055.43
835.57,14930.73
835.95,14798.79
836.34,14661.03
836.73,14518.98
837.12,14374.34
837.51,14228.91
837.89,14084.61
838.28,13943.37
838.67,13807.12
839.06,13677.75
839.44,13557.00
839.83,13446.41
840.22,13347.33
840.61,13260.79
840.99,13187.54
841.38,13127.98
841.77,13082.20
842.16,13049.95
842.54,13030.66
842.93,13023.47
843.32,13027.29
843.70,13040.78
844.09,13062.44
844.48,13090.66
844.86,13123.74
845.25,13159.93
845.64,13197.52
846.02,13234.83
846.41,13270.29
846.80,13302.43
847.18,13329.94
847.57,13351.67
847.96,13366.68
848.34,13374.19
848.73,13373.62
849.12,13364.57
849.50,13346.82
849.89,13320.30
850.27,13285.10
850.66,13241.45
851.05,13189.73
851.43,13130.44
851.82,13064.20
852.20,12991.77
852.59,12913.99
852.97,12831.79
853.36,12746.15
853.75,12658.10
854.13,12568.67
854.52,12478.84
854.90,12389.57
855.29,12301.72
855.67,12216.05
856.06,12133.23
856.44,12053.79
856.83,11978.13
857.21,11906.54
857.60,11839.20
857.98,11776.18
858.37,11717.47
858.75,11663.00
859.14,11612.66
859.52,11566.29
859.91,11523.73
860.29,11484.78
860.68,11449.26
861.06,11417.00
861.44,11387.80
861.83,11361.48
862.21,11337.87
862.60,11316.79
862.98,11298.04
863.37,11281.38
863.75,11266.55
864.13,11253.21
864.52,11240.94
864.90,11229.29
865.29,11217.73
865.67,11205.68
866.05,11192.60
866.44,11177.95
866.82,11161.29
867.20,11142.27
867.59,11120.66
867.97,11096.38
868.35,11069.47
868.74,11040.06
869.12,11008.38
869.50,10974.69
869.89,10939.31
870.27,10902.53
870.65,10864.66
871.04,10825.99
871.42,10786.81
871.80,10747.40
872.19,10708.05
872.57,10669.04
872.95,10630.65
873.33,10593.14
873.72,10556.72
874.10,10521.58
874.48,10487.84
874.86,10455.55
875.25,10424.71
875.63,10395.27
876.01,10367.13
876.39,10340.18
876.77,10314.33
877.16,10289.48
877.54,10265.60
877.92,10242.70
878.30,10220.86
878.68,10200.23
879.07,10180.98
879.45,10163.36
879.83,10147.65
880.21,10134.15
880.59,10123.17
880.97,10115.03
881.36,10110.04
881.74,10108.51
882.12,10110.72
882.50,10116.94
882.88,10127.45
883.26,10142.48
883.64,10162.22
884.02,10186.86
884.41,10216.48
884.79,10251.12
885.17,10290.71
885.55,10335.06
885.93,10383.87
886.31,10436.73
886.69,10493.09
887.07,10552.32
887.45,10613.74
887.83,10676.60
888.21,10740.16
888.59,10803.70
888.97,10866.53
889.35,10927.99
889.73,10987.47
890.11,11044.38
890.49,11098.16
890.87,11148.21
891.25,11193.96
891.63,11234.77
892.01,11270.01
892.39,11299.03
892.77,11321.17
893.15,11335.80
893.53,11342.29
893.91,11340.09
894.29,11328.68
894.67,11307.60
895.05,11276.50
895.43,11235.09
895.81,11183.22
896.19,11120.85
896.57,11048.05
896.95,10965.06
897.32,10872.27
897.70,10770.16
898.08,10659.39
898.46,10540.69
898.84,10414.92
899.22,10282.97
899.60,10145.83
899.98,10004.49
900.35,9859.98
900.73,9713.35
901.11,9565.60
901.49,9417.73
901.87,9270.66
902.25,9125.26
902.63,8982.31
903.00,8842.45
903.38,8706.26
903.76,8574.18
904.14,8446.56
904.52,8323.68
904.89,8205.73
905.27,8092.90
905.65,7985.31
906.03,7883.11
906.40,7786.43
906.78,7695.40
907.16,7610.15
907.54,7530.76
907.91,7457.30
908.29,7389.77
908.67,7328.09
909.05,7272.11
909.42,7221.59
909.80,7176.20
910.18,7135.56
910.55,7099.22
910.93,7066.71
911.31,7037.51
911.68,7011.12
912.06,6987.02
912.44,6964.73
912.82,6943.76
913.19,6923.67
913.57,6904.01
913.94,6884.41
914.32,6864.50
914.70,6843.97
915.07,6822.55
915.45,6800.04
915.83,6776.26
916.20,6751.10
916.58,6724.48
916.95,6696.35
917.33,6666.68
917.71,6635.47
918.08,6602.70
918.46,6568.36
918.83,6532.47
919.21,6494.99
919.58,6455.93
919.96,6415.28
920.34,6373.05
920.71,6329.26
921.09,6283.95
921.46,6237.20
921.84,6189.09
922.21,6139.78
922.59,6089.44
922.96,6038.26
923.34,5986.48
923.71,5934.36
924.09,5882.16
924.46,5830.17
924.84,5778.65
925.21,5727.84
925.59,5678.00
925.96,5629.33
926.34,5582.03
926.71,5536.29
927.08,5492.28
927.46,5450.16
927.83,5410.07
928.21,5372.14
928.58,5336.45
928.96,5303.07
929.33,5272.00
929.70,5243.20
930.08,5216.58
930.45,5191.99
930.83,5169.25
931.20,5148.16
931.57,5128.49
931.95,5110.05
932.32,5092.64
932.69,5076.07
933.07,5060.19
933.44,5044.86
933.81,5029.93
934.19,5015.27
934.56,5000.75
934.93,4986.20
935.31,4971.50
935.68,4956.50
936.05,4941.08
936.43,4925.12
936.80,4908.55
937.17,4891.31
937.54,4873.41
937.92,4854.83
938.29,4835.60
938.66,4815.75
939.03,4795.28
939.41,4774.20
939.78,4752.46
940.15,4730.02
940.52,4706.78
940.90,4682.63
941.27,4657.46
941.64,4631.15
942.01,4603.63
942.38,4574.85
942.76,4544.79
943.13,4513.52
943.50,4481.12
943.87,4447.73
944.24,4413.54
944.61,4378.73
944.99,4343.50
945.36,4308.05
945.73,4272.57
946.10,4237.22
946.47,4202.15
946.84,4167.45
947.21,4133.22
947.59,4099.53
947.96,4066.44
948.33,4033.97
948.70,4002.16
949.07,3971.04
949.44,3940.63
949.81,3910.96
950.18,3882.05
950.55,3853.95
950.92,3826.68
951.29,3800.28
951.66,3774.79
952.03,3750.24
952.41,3726.67
952.78,3704.09
953.15,3682.52
953.52,3661.94
953.89,3642.33
954.26,3623.61
954.63,3605.69
955.00,3588.45
955.37,3571.76
955.74,3555.45
956.11,3539.40
956.48,3523.45
956.84,3507.50
957.21,3491.48
957.58,3475.35
957.95,3459.10
958.32,3442.76
958.69,3426.37
959.06,3409.95
959.43,3393.54
959.80,3377.14
960.17,3360.75
960.54,3344.31
960.91,3327.77
961.28,3311.04
961.64,3294.05
962.01,3276.70
962.38,3258.93
962.75,3240.69
963.12,3221.95
963.49,3202.69
963.86,3182.94
964.22,3162.71
964.59,3142.06
964.96,3121.06
965.33,3099.78
965.70,3078.31
966.07,3056.75
966.43,3035.19
966.80,3013.72
967.17,2992.43
967.54,2971.36
967.91,2950.55
968.27,2929.99
968.64,2909.65
969.01,2889.47
969.38,2869.37
969.74,2849.27
970.11,2829.09
970.48,2808.77
970.85,2788.27
971.21,2767.60
971.58,2746.78
971.95,2725.88
972.31,2704.98
972.68,2684.18
973.05,2663.57
973.42,2643.24
973.78,2623.28
974.15,2603.73
974.52,2584.62
974.88,2565.98
975.25,2547.79
975.62,2530.04
975.98,2512.71
976.35,2495.74
976.72,2479.11
977.08,2462.77
977.45,2446.68
977.81,2430.79
978.18,2415.06
978.55,2399.45
978.91,2383.94
979.28,2368.49
979.64,2353.10
980.01,2337.79
980.38,2322.57
980.74,2307.47
981.11,2292.56
981.47,2277.87
981.84,2263.46
982.20,2249.36
982.57,2235.59
982.93,2222.15
983.30,2209.00
983.66,2196.11
984.03,2183.42
984.39,2170.85
984.76,2158.34
985.12,2145.84
985.49,2133.32
985.85,2120.74
986.22,2108.09
986.58,2095.40
986.95,2082.66
987.31,2069.88
987.68,2057.09
988.04,2044.28
988.41,2031.45
988.77,2018.60
989.13,2005.71
989.50,1992.77
989.86,1979.79
990.23,1966.76
990.59,1953.69
990.96,1940.59
991.32,1927.47
991.68,1914.35
992.05,1901.25
992.41,1888.17
992.77,1875.16
993.14,1862.22
993.50,1849.40
993.86,1836.71
994.23,1824.20
994.59,1811.90
994.95,1799.83
995.32,1788.02
995.68,1776.48
996.04,1765.22
996.41,1754.22
996.77,1743.46
997.13,1732.91
997.50,1722.51
997.86,1712.22
998.22,1701.97
998.58,1691.73
998.95,1681.45
999.31,1671.10
999.67,1660.65
1000.03,1650.11
1000.40,1639.48
1000.76,1628.79
1001.12,1618.05
1001.48,1607.31
1001.84,1596.58
1002.21,1585.89
1002.57,1575.26
1002.93,1564.71
1003.29,1554.25
1003.65,1543.89
1004.02,1533.63
1004.38,1523.50
1004.74,1513.51
1005.10,1503.67
1005.46,1494.02
1005.82,1484.57
1006.19,1475.34
1006.55,1466.33
1006.91,1457.53
1007.27,1448.92
1007.63,1440.47
1007.99,1432.13
1008.35,1423.87
1008.71,1415.64
1009.07,1407.41
1009.43,1399.16
1009.80,1390.89
1010.16,1382.62
1010.52,1374.36
1010.88,1366.16
1011.24,1358.04
1011.60,1350.06
1011.96,1342.23
1012.32,1334.58
1012.68,1327.11
1013.04,1319.84
1013.40,1312.74
1013.76,1305.79
1014.12,1298.99
1014.48,1292.30
1014.84,1285.71
1015.20,1279.21
1015.56,1272.80
1015.92,1266.48
1016.28,1260.25
1016.64,1254.12
1017.00,1248.10
1017.36,1242.18
1017.72,1236.36
1018.07,1230.63
1018.43,1224.98
1018.79,1219.39
1019.15,1213.85
1019.51,1208.32
1019.87,1202.79
1020.23,1197.24
1020.59,1191.64
1020.95,1185.99
1021.31,1180.27
1021.66,1174.49
1022.02,1168.66
1022.38,1162.79
1022.74,1156.91
1023.10,1151.05
1023.46,1145.23
1023.81,1139.49
1024.17,1133.85
1024.53,1128.30
1024.89,1122.85
1025.25,1117.47
1025.60,1112.15
1025.96,1106.84
1026.32,1101.53
1026.68,1096.21
1027.04,1090.54
1027.39,1085.08
1027.75,1079.60
1028.11,1074.26
1028.47,1069.21
1028.82,1052.77
1029.18,1066.81
1029.54,1052.77
1029.90,1052.77
1030.25,1052.77
